Fp1,Fp2,F7,F3,Fz,F4,F8,FC3,FCz,FC4,T7,C3,Cz,C4,T8,CP3,CPz,CP4,P7,P3,Pz,P4,P8,O1,Oz,O2,VPVA,VNVB,HPHL,HNHR,Erbs,OrbOcc,Mass
-8884.229158100328,-11678.118454782583,-7710.896040263927,1850.3163990221524,-121.7817005358244,-25854.92636028089,-18055.18802843596,-2163.2721549586245,630.8681086490028,-1098.858682732833,-8641.92059165553,-3159.046173095702,1892.8552928723784,-800.3335250051396,-10759.579507928143,-5027.4321907445,2266.6705282110916,1363.4405638042247,-8244.200756675318,-4553.041960063732,1762.9799089933695,690.5982368870784,1947.6288243343956,-3119.456140618575,-10949.93792082134,-9863.690326088352,-12981.766148617393,-17474.513304860968,-7982.630478708366,-2810.390372025339,-1082.6085743151211,-8589.280279059158,-5029.628151341488
-8882.409647891394,-11676.863620155735,-7709.327496980365,1852.0104257684004,-120.52686590897407,-25852.667657952556,-18054.12141900313,-2162.017320331774,633.8169700221009,-1098.0430402253803,-8641.544141267474,-3158.5442392449622,1893.2317432604336,-799.8315911543996,-10760.332408704255,-5027.369449013157,2267.360687255859,1363.1268551475123,-8244.514465332031,-4553.23018525776,1762.9171672620269,690.2217864990233,1944.1780291105567,-3120.648233514082,-10949.373245239256,-9863.815809551037,-12984.840493453175,-17475.39168909976,-7981.626611006886,-2810.7040806820514,-1085.369210494192,-8589.280279059158,-5029.565409610145
-8882.346906160052,-11677.114587081103,-7708.009920622173,1853.4534855892784,-120.15041552091898,-25852.102982370478,-18053.870452077765,-2160.574260510896,635.1972881116365,-1097.4783646432975,-8641.042207416735,-3157.916821931537,1894.486577887284,-799.5806242290295,-10760.45789216694,-5026.8675151624175,2267.360687255859,1363.56604726691,-8243.51059763055,-4553.606635645816,1764.1092601575347,690.0335613049958,1943.550611797132,-3120.020816200657,-10948.369377537776,-9863.12565050627,-12986.660003662108,-17473.57217889083,-7980.1208094546655,-2811.017789338764,-1085.7456608822467,-8586.896093268142,-5028.43605844598
-8883.476257324217,-11678.745872096008,-7707.570728502775,1853.3280021265928,-120.84057456568667,-25853.734267385375,-18054.811578047906,-2160.574260510896,634.1306786788136,-1098.0430402253803,-8641.16769087942,-3158.2932723195927,1894.988511738024,-801.0864257812499,-10761.02256774902,-5027.620415938527,2266.0431108976663,1363.691530729595,-8242.569471660412,-4554.924212004009,1764.5484522769325,689.1551770662006,1944.4917377672691,-3118.891465036492,-10948.620344463146,-9863.251133968957,-12986.032586348683,-17470.435092323703,-7979.493392141241,-2811.017789338764,-1080.914547568873,-8583.319814581617,-5027.055740356444
-8884.0409329063,-11679.122322484063,-7706.692344263979,1853.202518663908,-120.84057456568667,-25855.2400689376,-18055.18802843596,-2160.887969167609,633.1268109773334,-1099.1723913895455,-8641.355916073446,-3158.48149751362,1894.6748030813117,-802.6549690648128,-10761.587243331103,-5028.93799229672,2265.0392431961855,1363.8797559236225,-8242.130279541014,-4555.865337974145,1764.3602270829049,688.4022762900904,1944.9309298866672,-3118.264047723067,-10949.561470433284,-9863.815809551037,-12983.773884020353,-17467.298005756576,-7978.74049136513,-2809.386504323859,-1072.6953807630036,-8580.182728014493,-5027.118482087787
-8883.225290398848,-11677.679262663187,-7706.127668681896,1853.6417107833056,-119.58573993883634,-25854.361684698804,-18054.435127659846,-2160.637002242239,633.3150361713609,-1099.6743252402855,-8640.91672395405,-3157.97956366288,1894.1728692305717,-802.5922273334702,-10761.649985062448,-5029.6908930728305,2264.8510180021585,1364.5071732370475,-8241.628345690273,-4555.551629317433,1764.4857105455899,688.3395345587479,1944.1152873792144,-3118.389531185752,-10950.439854672079,-9864.443226864463,-12981.766148617393,-17465.478495547643,-7977.234689812912,-2806.8140933388154,-1065.6055651212992,-8579.680794163753,-5027.620415938527
-8883.099806936163,-11676.738136693048,-7707.382503308746,1853.2652603952504,-118.7700974313836,-25852.855883146585,-18054.184160734476,-2160.887969167609,633.1268109773334,-1099.9880338969983,-8640.91672395405,-3157.72859673751,1893.1690015290912,-801.9648100200451,-10761.838210256476,-5029.941859998201,2264.4745676141038,1364.695398431075,-8241.063670108191,-4554.735986809981,1764.6739357396175,688.5277597527754,1942.797711021021,-3118.954206767835,-10951.318238910875,-9865.070644177888,-12981.640665154704,-17466.10591286107,-7976.670014230827,-2806.4376429507606,-1061.1509021959805,-8582.127721686113,-5026.804773431074
-8885.609476189864,-11677.9929713199,-7710.143139487817,1851.5712336490024,-119.96219032689145,-25853.922492579408,-18055.940929212065,-2162.6447376451993,631.5582676937705,-1101.3056102551911,-8642.610750700298,-3158.23053058825,1891.2240078574728,-802.3412604081003,-10763.030303151983,-5030.255568654913,2263.2824747185955,1363.56604726691,-8241.377378764904,-4555.049695466692,1763.6073263067947,688.0258259020353,1941.9193267822263,-3119.958074469315,-10952.133881418327,-9865.760803222654,-12983.648400557668,-17467.674456144632,-7978.364040977075,-2809.449246055201,-1059.519617181075,-8585.013841327867,-5025.863647460937
-8888.934787951017,-11680.188931916888,-7712.401841816147,1849.9399486340967,-122.1581509238795,-25856.99683741519,-18058.199631540396,-2165.1544068989,629.3623070967824,-1103.0623787327816,-8644.869453028627,-3159.108914827045,1889.1535307231695,-803.2823863782381,-10765.038038554943,-5031.008469431024,2261.964898360403,1361.9975039833469,-8242.067537809673,-4556.680980481599,1761.9760412918893,687.1474416632401,1942.4212606329663,-3120.5227500513975,-10952.384848343696,-9865.949028416682,-12986.660003662108,-17469.36848289088,-7981.563869275542,-2812.90004127904,-1060.8999352706105,-8587.084318462172,-5026.491064774362
-8891.946391055457,-11681.00457442434,-7712.339100084806,1849.312531320672,-123.22476035670228,-25859.192798012176,-18059.266240973215,-2166.2210163317222,628.3584393953022,-1103.627054314864,-8645.810578998764,-3159.548106946443,1888.3378882157172,-803.1569029155529,-10766.041906256423,-5031.133952893709,2261.2119975842925,1361.6837953266343,-8241.879312615645,-4557.810331645765,1761.223140515779,686.8337330065275,1944.052545647872,-3119.7698492752875,-10951.506464104901,-9865.196127640573,-12987.789354826273,-17471.87815214458,-7984.889181036698,-2813.90390898052,-1064.6644391511616,-8588.966570402446,-5027.871382863897
-8897.028471294201,-11679.561514603463,-7710.582331607215,1851.1947832609476,-121.7189588044819,-25858.50263896741,-18058.387856734425,-2163.7740888093645,629.8642409475226,-1101.8075441059311,-8644.43026090923,-3158.105047125565,1890.2828818873356,-801.1491675125923,-10764.47336297286,-5029.502667878803,2261.9021566290603,1363.56604726691,-8240.561736257452,-4556.931947406969,1761.6623326351767,687.9630841706928,1945.9347975881476,-3118.3267894544097,-10950.251629478053,-9864.066776476408,-12985.216943841227,-17474.325079666938,-7985.95579046952,-2812.209882234272,-1068.6799099570826,-8589.719471178556,-5027.118482087787
-8903.114419234425,-11677.804746125872,-7709.327496980365,1854.1436446340456,-119.0838060880962,-25855.867486251027,-18056.50560479415,-2159.6958762721006,632.6876188579358,-1098.984166195518,-8641.98333338687,-3155.4071526778366,1893.9219023052008,-798.5767565275492,-10761.46175986842,-5026.992998625104,2263.470699912624,1366.640392102693,-8238.804967779859,-4555.112437198036,1762.4152334112869,689.5316274542557,1947.1268904836552,-3117.1346965589014,-10949.686953895967,-9863.502100894324,-12982.01711554276,-17475.517172562442,-7984.638214111326,-2810.264888562654,-1070.4994201660156,-8588.464636551706,-5025.424455341539
-8904.871187712017,-11677.679262663187,-7709.578463905735,1854.9592871414984,-118.6446139686986,-25853.420558728663,-18055.376253629984,-2157.8136243318254,634.5071290668689,-1097.1019142552425,-8640.728498760021,-3153.7758676629314,1896.3060880962169,-796.6945045872737,-10759.265799271432,-5025.487197072882,2264.7255345394733,1369.0245778937087,-8237.361907958984,-4554.1713112278985,1762.9799089933695,690.4727534243934,1947.440599140368,-3116.695504439504,-10950.063404284025,-9863.878551282382,-12982.70727458753,-17474.136854472912,-7983.195154290451,-2810.515855488024,-1069.6837776585628,-8586.833351536798,-5025.863647460937
-8900.416524786697,-11678.49490517064,-7710.456848144529,1853.2652603952504,-120.71509110300163,-25852.54217448987,-18055.250770167295,-2158.6292668392775,634.6326125295539,-1096.2235300164473,-8641.41865780479,-3153.587642468904,1896.8707636782997,-795.1887030350533,-10758.51289849532,-5025.298971878854,2265.3529518528985,1370.5303794459292,-8237.80110007838,-4554.485019884611,1763.8582932321647,691.6648463199012,1947.7543077970804,-3117.887597335012,-10950.753563328792,-9864.945160715202,-12985.781619423313,-17470.246867129674,-7982.379511782995,-2811.645206652189,-1068.5544264943976,-8586.143192492033,-5027.18122381913
-8894.330576846472,-11679.937964991515,-7711.899907965408,1850.4418824848372,-123.41298555072984,-25853.67152565404,-18055.940929212065,-2160.5115187795536,633.440519634046,-1095.9098213597347,-8643.489134939091,-3154.152318050986,1896.4943132902445,-794.3730605276006,-10758.701123689349,-5025.863647460937,2265.478435315584,1371.596988878752,-8239.80883548134,-4555.551629317433,1764.1092601575347,693.1706478721217,1948.2562416478208,-3120.020816200657,-10951.067271985505,-9865.949028416682,-12987.852096557615,-17468.67832384611,-7982.504995245682,-2812.6490743536697,-1068.0524926436572,-8587.084318462172,-5028.310574983295
-8890.879781622634,-11682.949568095957,-7714.221352025082,1847.2420541863687,-125.5462044163754,-25856.68312875848,-18057.82318115234,-2162.770221107884,631.621009425113,-1096.4744969418173,-8645.49687034205,-3154.9679605584392,1895.3022203947369,-794.6240274529707,-10759.45402446546,-5026.93025689376,2265.7294022409537,1371.9734392668067,-8241.440120496247,-4556.179046630858,1763.544584575452,694.299999036287,1948.6954337672184,-3120.773716976768,-10950.314371209395,-9865.635319759971,-12989.98531542326,-17472.129119069952,-7983.9480550665585,-2814.40584283126,-1069.0563603451376,-8589.782212909897,-5030.318310386256
-8889.875913921154,-11685.082786961604,-7716.354570890727,1844.9833518580383,-126.92652250591075,-25860.008440519632,-18059.830916555304,-2165.028923436215,629.9269826788651,-1097.6038481059827,-8646.375254580846,-3155.4698944091792,1893.8591605738588,-795.2514447663958,-10760.01870004754,-5028.122349789268,2266.419561285721,1371.847955804122,-8242.443988197729,-4555.928079705489,1763.042650724712,695.2411250064247,1949.1973676179584,-3120.083557932,-10948.620344463146,-9863.878551282382,-12993.561594109784,-17476.772007189298,-7986.144015663549,-2815.7234191894527,-1071.3150626734682,-8592.982041208366,-5031.573145013105
-8889.373980070415,-11683.890694066096,-7716.480054353411,1844.2931928132707,-127.30297289396584,-25862.831818430044,-18060.2701086747,-2166.66020845112,628.6094063206722,-1099.109649658203,-8646.877188431587,-3155.5326361405214,1892.6043259470084,-795.6906368857934,-10760.081441778884,-5028.687025371351,2267.423428987201,1371.5342471474091,-8243.071405511153,-4555.300662392064,1763.544584575452,696.5587013646175,1949.7620432000408,-3118.6404981111223,-10946.424383866159,-9861.055173371964,-12996.510455482883,-17480.034577219107,-7987.712558947111,-2815.15874360737,-1071.3778044048108,-8594.55058449193,-5030.443793848941
-8888.432854100276,-11680.690865767629,-7715.287961457904,1844.5441597386407,-127.1147476999383,-25864.839553833004,-18058.638823659796,-2167.224884033203,627.5427968878495,-1100.3017425537107,-8647.37912228233,-3155.5326361405214,1891.9141669022408,-795.9416038111635,-10759.642249659488,-5028.310574983295,2268.176329763312,1371.3460219533815,-8242.820438585783,-4554.735986809981,1764.5484522769325,697.5625690660978,1951.2051030209188,-3116.6327627081614,-10944.353906731856,-9858.482762386924,-12995.757554706772,-17482.857955129522,-7988.21449279785,-2813.40197512978,-1069.7465193899054,-8594.738809685958,-5028.498800177323
-8887.679953324166,-11678.369421707956,-7714.848769338506,1845.1088353207235,-126.80103904322571,-25865.216004221056,-18055.68996228669,-2167.4131092272305,626.6016709177117,-1100.9919015984783,-8647.316380550985,-3155.8463447972345,1891.4749747828432,-796.1925707365336,-10758.889348883376,-5027.871382863897,2267.486170718544,1370.7186046399568,-8242.50672992907,-4554.798728541324,1764.7366774709599,697.3116021407277,1952.6481628417969,-3115.691636738024,-10944.040198075145,-9858.169053730211,-12992.808693333674,-17485.49310784591,-7988.841910111277,-2811.9589153089014,-1070.813128822728,-8595.868160850121,-5027.620415938527
-8887.74269505551,-11677.177328812448,-7714.723285875821,1845.8617360968335,-126.2991051924856,-25863.020043624078,-18052.803842644946,-2166.9739171078327,626.5389291863692,-1100.8036764044507,-8646.312512849505,-3156.160053453947,1890.7848157380756,-796.3807959305611,-10758.199189838608,-5027.871382863897,2265.5411770469264,1369.651995207134,-8242.694955123097,-4555.488887586092,1763.9837766948497,695.9940257825349,1952.7736463044816,-3116.695504439504,-10945.545999627364,-9860.114047401827,-12989.92257369192,-17486.30875035336,-7989.532069156043,-2810.641338950709,-1074.201182315224,-8596.746545088918,-5027.4321907445
-8888.119145443565,-11676.800878424392,-7714.284093756424,1846.1754447535463,-125.92265480443048,-25859.506506668888,-18051.29804109272,-2166.0327911376958,627.4173134251644,-1100.1762590910257,-8644.869453028627,-3156.47376211066,1890.094656693308,-797.5101470947264,-10758.324673301295,-5028.059608057924,2263.6589251066507,1367.957968460886,-8242.945922048468,-4556.806463944284,1762.7916837993419,693.9235486482319,1951.8952620656864,-3118.5150146484366,-10947.114542910924,-9862.184524536131,-12987.412904438219,-17484.36375668174,-7988.841910111277,-2809.1355373984884,-1078.1539113898025,-8595.554452193412,-5026.93025689376
-8888.119145443565,-11677.114587081103,-7714.346835487767,1845.673510902806,-126.11087999845805,-25857.24780434056,-18051.611749749434,-2165.593599018297,627.731022081877,-1100.364484285053,-8644.367519177886,-3157.2266628867696,1889.3417559171971,-799.8315911543996,-10759.579507928143,-5028.122349789268,2261.7139314350325,1365.5737826698703,-8242.883180317125,-4558.563232421873,1761.599590903834,691.7903297825862,1950.8913943642065,-3119.393398887232,-10947.679218493007,-9862.310007998816,-12984.903235184518,-17479.720868562395,-7986.959658171,-2808.006186234323,-1080.538097180818,-8593.421233327763,-5026.67928996839
-8886.864310816714,-11676.612653230364,-7713.97038509971,1846.551895141601,-126.11087999845805,-25855.99296971371,-18052.176425331516,-2164.8406982421875,628.1074724699321,-1100.3017425537107,-8644.367519177886,-3157.47762981214,1889.2162724545124,-801.5256179006474,-10760.269666972912,-5027.745899401212,2260.333613345497,1364.0679811176499,-8242.569471660412,-4558.93968280993,1761.725074366519,691.288395931846,1951.7697786030012,-3118.891465036492,-10946.98905944824,-9860.490497789884,-12980.887764378596,-17473.57217889083,-7984.449988917299,-2806.8768350701575,-1078.467620046515,-8590.535113686008,-5026.240097848992
-8885.985926577916,-11675.859752454255,-7713.029259129575,1848.9360809326167,-125.35797922234784,-25856.055711445053,-18052.7411009136,-2163.2721549586245,629.4877905594674,-1100.1762590910257,-8644.43026090923,-3156.787470767372,1889.5299811112247,-802.0902934827302,-10760.269666972912,-5027.4321907445,2260.1453881514694,1363.691530729595,-8243.00866377981,-4557.93581510845,1762.5407168739719,691.8530715139287,1953.1500966925369,-3118.4522729170944,-10946.361642134816,-9859.42388835706,-12977.311485692073,-17468.8038073088,-7982.379511782995,-2807.1905437268706,-1073.0090894197162,-8588.401894820363,-5027.4321907445
-8887.491728130137,-11677.24007054379,-7713.029259129575,1850.1909155594676,-124.7933036402652,-25858.12618857936,-18054.497869391187,-2162.268287257144,631.2445590370579,-1101.180126792506,-8645.43412861071,-3156.5365038420023,1889.40449764854,-803.407869840923,-10761.587243331103,-5028.247833251952,2260.5845802708673,1362.750404759457,-8244.765432257398,-4557.559364720393,1761.9760412918893,690.911945543791,1952.4599376477688,-3119.33065715589,-10947.177284642268,-9861.180656834653,-12979.00551243832,-17468.61558211477,-7982.442253514339,-2810.8923058760793,-1069.1191020764802,-8588.150927894992,-5030.130085192228
-8889.813172189812,-11680.063448454202,-7713.656676442998,1849.9399486340967,-124.040402864155,-25860.07118225097,-18056.50560479415,-2162.331028988486,632.4366519325657,-1102.4977031506987,-8647.065413625616,-3157.101179424085,1889.90643149928,-805.4783469752259,-10763.657720465408,-5029.126217490748,2261.086514121608,1361.2446032072367,-8246.333975540963,-4557.684848183079,1760.7839483963814,689.0924353348581,1950.5149439761512,-3120.020816200657,-10948.181152343748,-9863.188392237613,-12984.96597691586,-17473.760404084856,-7984.324505454614,-2815.7861609207953,-1071.3150626734682,-8588.276411357676,-5030.757502505653
-8889.185754876387,-11679.937964991515,-7712.339100084806,1851.0692997982624,-121.3425084164268,-25858.565380698758,-18056.12915440609,-2161.327161287006,634.1934204101561,-1101.8075441059311,-8646.43799631219,-3156.787470767372,1892.2278755589532,-805.9802808259662,-10764.72432989823,-5028.1850915206105,2262.466832211143,1360.9936362818667,-8245.706558227539,-4556.555497018913,1761.599590903834,688.966951872173,1948.6954337672184,-3118.954206767835,-10947.616476761666,-9863.000167043585,-12988.291288677012,-17478.8424843236,-7985.328373156094,-2816.4135782342205,-1077.9656861957749,-8587.460768850226,-5029.753634804173
-8885.985926577916,-11675.797010722912,-7709.641205637076,1854.0809029027037,-117.38977934184825,-25854.67539335552,-18053.368518227024,-2158.9429754959906,636.7030896638569,-1099.611583508943,-8643.551876670435,-3155.281669215152,1895.176736932052,-804.7254461991158,-10764.47336297286,-5026.302839580335,2264.662792808131,1362.1229874460319,-8243.573339361892,-4554.924212004009,1763.9210349635073,690.3472699617084,1947.440599140368,-3117.1346965589014,-10946.23615867213,-9861.243398565992,-12986.72274539345,-17479.84635202508,-7983.9480550665585,-2811.8334318462166,-1082.3576073897511,-8585.641258641292,-5028.687025371351
-8882.472389622737,-11671.969765111018,-7707.4452450400895,1856.778797350432,-114.56640143143503,-25851.538306788392,-18051.109815898693,-2157.248948749743,638.6480833354749,-1098.0430402253803,-8641.293174342105,-3154.089576319644,1897.1217306036697,-803.0941611842104,-10763.532237002722,-5025.361713610197,2266.482303017064,1363.3150803415397,-8242.381246466384,-4554.359536421926,1765.5523199784127,691.8530715139287,1947.7543077970804,-3115.8798619320514,-10944.667615388567,-9859.047437969004,-12983.334691900955,-17478.59151739823,-7981.438385812858,-2807.002318532843,-1082.3576073897511,-8583.194331118933,-5027.306707281815
-8880.903846339175,-11670.463963558796,-7705.625734831156,1857.8454067832545,-113.49979199861224,-25850.283472161536,-18050.545140316608,-2156.809756630345,639.9029179623252,-1097.415622911955,-8640.289306640625,-3153.524900737561,1898.0628565738073,-801.5883596319901,-10762.402885838555,-5025.110746684827,2267.8626211066,1364.3816897743625,-8242.067537809673,-4554.108569496556,1766.4934459485503,693.1706478721217,1949.1973676179584,-3115.126961155941,-10943.161813836348,-9857.478894685442,-12980.762280915911,-17476.709265457954,-7979.367908678557,-2804.806357935855,-1080.7263223748455,-8580.87288705926,-5025.67542226691
-8884.480125025697,-11670.401221827455,-7704.370900204306,1857.4689563951993,-114.37817623740747,-25851.036372937648,-18051.172557630038,-2157.248948749743,639.8401762309827,-1097.415622911955,-8639.975597983912,-3153.2739338121914,1897.87463137978,-801.0236840499075,-10761.524501599763,-5025.487197072882,2268.4272966886815,1364.7581401624177,-8241.816570884303,-4553.983086033872,1766.807154605263,693.1706478721217,1948.8209172299032,-3115.315186349969,-10944.040198075145,-9858.545504118265,-12980.51131399054,-17474.387821398283,-7978.677749633789,-2804.4926492791424,-1080.4126137181331,-8580.308211477177,-5024.106878983345
-8889.750430458469,-11670.714930484168,-7703.555257696855,1856.9042808131169,-116.51139510305303,-25852.98136660927,-18051.423524555405,-2157.750882600483,638.7735667981599,-1097.3528811806125,-8640.289306640625,-3153.022966886821,1897.184472335012,-801.1491675125923,-10760.45789216694,-5026.114614386307,2268.3018132259967,1364.31894804302,-8241.189153570876,-4554.234052959241,1766.1169955604953,691.7903297825862,1946.0602810508324,-3116.3817957827914,-10947.177284642268,-9861.619848954047,-12981.766148617393,-17472.380085995323,-7978.865974827816,-2805.43377524928,-1079.8479381360503,-8580.998370521946,-5023.103011281865
-8891.068006816662,-11671.342347797592,-7703.555257696855,1856.4650886937193,-118.58187223735607,-25854.61265162417,-18050.29417339124,-2157.876366063168,637.7069573653371,-1096.5999804045023,-8640.91672395405,-3152.521033036081,1896.4315715589016,-801.0864257812499,-10759.516766196803,-5026.491064774362,2268.1135880319694,1363.9424976549649,-8240.49899452611,-4554.547761615952,1764.7366774709599,690.2217864990233,1943.550611797132,-3117.4484052156145,-10949.435986970599,-9863.815809551037,-12982.958241512899,-17471.06250963713,-7979.1169417531855,-2806.625868144788,-1075.5815004047593,-8581.061112253288,-5023.542203401264
-8888.495595831617,-11671.78153991699,-7704.935575786387,1855.7121879176088,-119.4602564761513,-25855.30281066894,-18047.84724586888,-2157.876366063168,636.7658313951994,-1095.345145777652,-8641.293174342105,-3152.081840916684,1896.0551211708469,-800.2707832737971,-10759.077574077404,-5026.742031699732,2267.8626211066,1364.444431505705,-8240.436252794769,-4554.610503347296,1763.544584575452,689.5316274542557,1943.8015787225015,-3117.762113872327,-10949.24776177657,-9863.313875700296,-12983.522917094982,-17469.556708084907,-7979.242425215871,-2806.249417756733,-1070.8758705540706,-8579.994502820466,-5024.357845908717
-8884.417383294354,-11671.02863914088,-7706.566860801295,1855.084770604184,-118.83283916272615,-25855.428294131623,-18045.463060077866,-2158.127332988538,635.4482550370066,-1093.902085956774,-8641.544141267474,-3152.709258230109,1896.3060880962169,-798.6394982588916,-10758.638381958004,-5027.369449013157,2267.235203793174,1365.9502330579255,-8241.816570884303,-4555.300662392064,1762.8544255306845,689.9708195736533,1946.7504400956,-3117.9503390663544,-10947.679218493007,-9860.86694817794,-12983.271950169612,-17468.92929077148,-7979.3051669472125,-2804.3671658164567,-1069.4955524645352,-8578.739668193615,-5024.044137252004
-8879.586269980982,-11668.958162006578,-7706.943311189349,1855.3357375295536,-116.76236202842308,-25854.738135086856,-18044.145483719672,-2158.0645912571954,634.8835794549238,-1091.8943505538136,-8641.857849924185,-3153.713125931589,1897.3099557976968,-796.5690211245886,-10757.697255987869,-5027.996866326584,2266.733269942434,1367.8324849982007,-8244.075273212633,-4556.555497018913,1762.9799089933695,691.1629124691611,1951.0168778268912,-3118.264047723067,-10945.420516164679,-9857.980828536183,-12981.01324784128,-17469.744933278937,-7978.928716559159,-2802.1084634881267,-1070.3739367033304,-8577.924025686163,-5022.4128522370975
-8876.135474757144,-11667.326876991672,-7706.378635607267,1856.4650886937193,-114.69188489412004,-25853.98523431075,-18044.459192376387,-2157.374432212428,635.0090629176088,-1090.8904828523334,-8641.92059165553,-3153.9013511256167,1897.9373731111225,-795.3141864977384,-10757.195322137128,-5027.68315766987,2266.105852629009,1368.208935386256,-8244.953657451428,-4557.308397795025,1763.1053924560545,691.4766211258737,1952.8991297671664,-3118.0130807976966,-10944.291165000512,-9857.102444297389,-12977.625194348784,-17470.12138366699,-7978.175815783048,-2800.8536288612763,-1073.0090894197162,-8578.300476074217,-5021.534467998304
-8875.131607055662,-11668.268002961808,-7705.249284443101,1857.9708902459397,-113.6880171926398,-25853.79700911672,-18045.964993928606,-2156.056855854235,634.8208377235812,-1092.0825757478412,-8640.853982222705,-3153.022966886821,1896.8707636782997,-795.8161203484785,-10757.383547331156,-5026.17735611765,2264.4118258827607,1366.2011999832955,-8243.196888973838,-4556.618238750257,1762.1015247545743,689.7198526482832,1950.389460513466,-3117.322921752929,-10946.110675209444,-9859.549371819745,-12975.554717214483,-17469.36848289088,-7977.109206350226,-2801.481046174701,-1076.8363350316097,-8579.994502820466,-5022.663819162469
-8875.508057443718,-11670.903155678196,-7704.308158472963,1858.7237910220492,-113.87624238666734,-25854.42442643015,-18048.098212794248,-2154.6765377647,634.1934204101561,-1095.0314371209395,-8639.285438939143,-3152.2073243793684,1893.9219023052008,-797.823855751439,-10758.763865420691,-5024.734296296771,2262.215865285773,1363.0641134161697,-8241.063670108191,-4555.614371048776,1760.0937893516136,686.3945408871299,1945.74657239412,-3118.07582252904,-10949.24776177657,-9863.251133968957,-12976.24487625925,-17469.556708084907,-7976.795497693512,-2803.92797369706,-1081.165514494243,-8582.441430342822,-5024.357845908717
-8877.139342458624,-11672.78540761847,-7703.931708084909,1858.535565828022,-115.06833528217516,-25855.80474451968,-18049.980464734526,-2154.1118621826167,633.3777779027033,-1098.4194906134353,-8638.469796431691,-3152.144582648026,1890.2201401559928,-800.4590084678247,-10761.02256774902,-5024.106878983345,2260.270871614154,1359.6760599236738,-8240.812703182823,-4555.426145854749,1757.082186247173,682.4418118125514,1941.417392931486,-3121.150167364822,-10952.573073537724,-9867.266604774877,-12979.068254169664,-17471.313476562496,-7977.48565673828,-2806.7513516074728,-1084.3653427927115,-8584.888357865182,-5025.738163998252
-8880.27642902575,-11673.161858006526,-7704.49638366699,1857.1552477384864,-117.64074626721832,-25857.81247992264,-18051.54900801809,-2155.0529881527546,631.9347180818256,-1101.8075441059311,-8638.595279894376,-3152.8347416927936,1886.8320866634967,-802.8431942588403,-10762.653852763928,-5024.608812834087,2257.7612023604543,1356.3507481625204,-8242.255763003699,-4556.053563168174,1753.1294571725944,678.9282748573704,1938.7822402151005,-3124.9774129767166,-10955.898385298879,-9871.470300774825,-12981.766148617393,-17472.505569458004,-7977.987590589021,-2808.1316696970084,-1083.1105081658611,-8585.954967298003,-5027.118482087787
-8882.974323473478,-11673.224599737869,-7706.127668681896,1854.8338036788136,-120.71509110300163,-25860.196665713655,-18052.552875719568,-2157.3116904810854,629.4250488281249,-1104.6936637476867,-8638.720763357062,-3153.7758676629314,1884.4479008724811,-804.9136713931433,-10762.779336226611,-5026.240097848992,2254.435890599301,1354.1547875655324,-8243.51059763055,-4557.371139526366,1749.9923706054683,676.6695725290398,1938.844981946443,-3126.483214528937,-10957.655153776468,-9873.478036177785,-12982.581791124843,-17471.940893875922,-7977.987590589021,-2807.6297358462684,-1078.0284279271175,-8585.453033447266,-5027.369449013157
-8883.476257324217,-11672.848149349811,-7708.135404084857,1852.5751013504832,-123.03653516267472,-25862.392626310648,-18052.490133988227,-2159.946843197471,626.6644126490542,-1106.51317395662,-8638.344312969004,-3154.9052188270966,1882.9420993202607,-806.4194729453639,-10762.151918913187,-5028.3733167146365,2251.5497709575448,1353.401886789422,-8243.887048018605,-4559.127908003958,1748.6747942472757,675.477479633532,1940.3507834986635,-3125.2911216334287,-10957.4041868511,-9872.662393670333,-12981.264214766652,-17469.682191547592,-7977.422915006938,-2805.747483905993,-1072.8208642256886,-8584.386424014441,-5026.051872654964
-8883.162548667506,-11671.53057299162,-7708.762821398282,1851.696717111688,-124.040402864155,-25863.647460937496,-18051.48626628675,-2161.766353406404,624.8449024401212,-1107.1405912700452,-8638.281571237663,-3156.285536916632,1882.251940275493,-807.2351154528164,-10761.775468525131,-5029.941859998201,2249.855744211297,1353.2136615953943,-8244.075273212633,-4560.44548436215,1748.9257611726457,674.9755457827919,1941.6683598568563,-3123.346127961811,-10956.337577418277,-9870.591916536028,-12978.00164473684,-17466.85881363718,-7976.293563842772,-2803.614265040347,-1070.311194971988,-8583.06884765625,-5024.671554565429
-8883.601740786902,-11670.77767221551,-7708.574596204255,1851.8849423057152,-123.41298555072984,-25863.961169594208,-18050.796107241975,-2162.6447376451993,624.7194189774361,-1107.0778495387024,-8639.15995547646,-3157.5403715434823,1882.7538741262333,-807.5488241095292,-10762.026435450503,-5030.882985968337,2249.7930024799543,1352.7117277446544,-8243.949789749948,-4560.69645128752,1749.9923706054683,675.1637709768194,1942.295777170281,-3121.652101215563,-10955.020001060084,-9868.646922864411,-12974.9900416324,-17465.8549459357,-7976.168080380086,-2803.3005563836346,-1071.1895792107832,-8582.504172074166,-5024.483329371402
-8884.605608488384,-11672.47169896176,-7708.888304860966,1851.6339753803447,-122.03266746119448,-25864.023911325552,-18051.109815898693,-2163.2094132272814,626.2252205296566,-1106.9523660760176,-8640.289306640625,-3158.3560140509358,1884.510642603824,-807.7370493035567,-10762.904819689298,-5031.259436356393,2251.5497709575448,1352.5862442819691,-8243.824306287263,-4560.19451743678,1751.8118808144015,675.351996170847,1942.4212606329663,-3120.2717831260275,-10953.827908164576,-9867.329346506218,-12974.864558169715,-17468.11364826403,-7977.799365394993,-2805.496516980623,-1073.0718311510586,-8583.06884765625,-5025.048004953484
-8885.358509264493,-11675.4833020662,-7708.637337935596,1851.5712336490024,-120.27589898360402,-25863.45923574347,-18052.113683600168,-2162.7074793765414,629.1113401714124,-1106.3249487625924,-8640.352048371964,-3158.105047125565,1887.3967622455796,-807.172373721474,-10763.532237002722,-5030.0046017295435,2254.937824450041,1353.903820640162,-8243.196888973838,-4559.002424541272,1754.5097752621296,675.7284465589021,1942.9859362150487,-3118.6404981111223,-10951.694689298927,-9865.509836297284,-12978.440836856238,-17472.129119069952,-7979.74435906661,-2807.6924775776106,-1074.6403744346217,-8583.508039775646,-5024.357845908717
-8885.923184846575,-11677.9929713199,-7708.1981458162,1852.198650962428,-119.33477301346628,-25862.831818430044,-18053.80771034642,-2161.9545786004314,631.6837511564555,-1106.0112401058796,-8640.226564909282,-3157.72859673751,1889.7182063052524,-806.2312477513361,-10764.222396047491,-5028.624283640008,2257.9494275544816,1354.7822048789576,-8242.067537809673,-4558.43774895919,1756.51751066509,676.2931221409847,1942.797711021021,-3117.5111469469566,-10950.251629478053,-9864.317743401778,-12984.71500999049,-17475.32894736842,-7981.752094469572,-2809.010053935804,-1075.8324673301295,-8584.386424014441,-5023.165753013209
-8886.676085622687,-11678.557646901983,-7708.386371010227,1853.2652603952504,-119.33477301346628,-25863.145527086755,-18055.81544574938,-2161.515386481034,633.1268109773334,-1106.1367235685648,-8640.91672395405,-3157.854080200195,1890.9730409321032,-805.5410887065685,-10765.351747211656,-5028.875250565377,2259.455229106702,1354.0920458341895,-8241.879312615645,-4558.688715884559,1756.7684775904604,676.7323142603823,1940.7272338867183,-3118.4522729170944,-10952.259364881013,-9865.886286685341,-12989.106931184464,-17476.709265457954,-7983.195154290451,-2810.139405099969,-1075.9579507928145,-8586.205934223375,-5023.918653789319
-8888.558337562961,-11677.302812275131,-7708.574596204255,1854.4573532907584,-119.0838060880962,-25863.83568613153,-18056.8820551822,-2160.8252274362662,634.2561621414987,-1105.6975314491672,-8641.481399536131,-3157.916821931537,1892.1651338276108,-805.7293139005961,-10765.97916452508,-5029.628151341488,2260.0826464201273,1353.3391450580796,-8242.945922048468,-4558.93968280993,1756.51751066509,676.9205394544099,1937.966597707648,-3120.2717831260275,-10955.45919317948,-9868.584181133068,-12988.291288677012,-17476.83474892064,-7982.881445633738,-2810.9550476074214,-1075.9579507928145,-8587.209801924855,-5026.365581311677
-8891.820907592772,-11676.612653230364,-7709.013788323653,1854.5200950221008,-119.5229982074938,-25864.400361713608,-18057.258505570255,-2160.8252274362662,634.4443873355262,-1105.6347897178248,-8641.355916073446,-3158.606980976305,1892.9180346037208,-807.172373721474,-10766.606581838507,-5030.443793848941,2259.8944212261,1352.899952938682,-8243.25963070518,-4559.127908003958,1756.4547689337478,676.3558638723272,1936.084345767372,-3120.773716976768,-10956.9649947317,-9869.839015759919,-12984.150334408407,-17476.58378199527,-7981.877577932256,-2811.3314979954766,-1077.8402027330899,-8587.648994044253,-5027.996866326584
-8893.703159533048,-11677.24007054379,-7709.578463905735,1853.2652603952504,-121.53073361045433,-25864.71407037032,-18058.07414807771,-2162.1428037944593,633.3150361713609,-1106.3876904939348,-8641.355916073446,-3160.050040797183,1892.792551141036,-809.0546256617495,-10767.673191271328,-5031.949595401161,2258.639586599249,1352.3352773565991,-8242.694955123097,-4559.880808780067,1756.26654373972,675.5402213648745,1935.4569284539473,-3120.8992004394527,-10957.71789550781,-9870.466433073345,-12980.448572259198,-17475.64265602513,-7981.061935424803,-2811.4569814581614,-1079.1577790912827,-8589.029312133789,-5028.059608057924
-8891.50719893606,-11677.051845349763,-7708.888304860966,1852.3868761564556,-123.47572728207236,-25864.14939478824,-18058.32511500308,-2162.958446301912,632.3111684698807,-1105.9484983745372,-8641.293174342105,-3160.4892329165805,1893.1062597977489,-809.1801091244346,-10767.547707808644,-5032.8279796399565,2258.4513614052216,1353.2136615953943,-8243.322372436523,-4560.69645128752,1756.51751066509,676.1676386782997,1936.5235378867696,-3121.777584678248,-10958.031604164524,-9871.093850386767,-12978.315353393553,-17472.88201984606,-7979.618875603926,-2810.2021468313114,-1076.773593300267,-8589.154795596472,-5026.365581311677
-8885.985926577916,-11675.608785528884,-7706.629602532636,1853.202518663908,-122.91105169998971,-25862.51810977333,-18056.944796913547,-2161.9545786004314,633.1268109773334,-1103.0623787327816,-8640.414790103308,-3158.9206896330174,1894.6120613499688,-806.2939894826787,-10765.602714137027,-5031.635886744449,2261.1492558529494,1356.4762316252054,-8243.949789749948,-4559.567100123354,1758.3370208740232,679.0537583200554,1939.158690603156,-3121.212909096165,-10955.835643567536,-9869.713532297232,-12977.374227423416,-17468.8038073088,-7977.673881932307,-2808.006186234323,-1072.6953807630036,-8586.394159417403,-5023.730428595291
-8880.088203831721,-11674.291209170691,-7704.308158472963,1855.0220288728408,-120.21315725226148,-25861.26327514648,-18055.627220555358,-2159.8841014661284,634.4443873355262,-1099.486100046258,-8638.65802162572,-3156.7247290360297,1896.4943132902445,-802.8431942588403,-10764.347879510176,-5029.628151341488,2264.9765014648433,1360.2407355057564,-8242.50672992907,-4556.179046630858,1760.8466901277238,682.3163283498662,1941.1036842747735,-3118.8287233051497,-10952.510331806381,-9867.329346506218,-12977.311485692073,-17464.725594771535,-7976.293563842772,-2807.566994114926,-1071.5032878674958,-8582.56691380551,-5022.4128522370975
-8877.578534578019,-11674.47943436472,-7703.178807308798,1856.088638305664,-118.20542184930096,-25861.576983803196,-18055.940929212065,-2158.566525107936,634.0679369474711,-1098.0430402253803,-8637.340445267526,-3155.5953778718645,1896.996247140985,-801.7765848260176,-10764.912555092258,-5028.43605844598,2266.7960116737763,1361.8092787893193,-8240.875444914165,-4553.669377377159,1761.5368491724917,683.3201960513466,1940.8527173494035,-3118.6404981111223,-10952.384848343696,-9867.956763819644,-12978.50357858758,-17463.219793219312,-7976.168080380086,-2809.1355373984884,-1074.3894075092514,-8579.806277626438,-5022.977527819181
-8879.147077861584,-11675.922494185595,-7702.865098652086,1856.4650886937193,-117.8917131925884,-25862.70633496736,-18057.446730764288,-2158.4410416452506,632.6876188579358,-1099.0469079268605,-8637.21496180484,-3154.9679605584392,1896.0551211708469,-802.5294856021278,-10766.104647987764,-5027.93412459524,2266.419561285721,1361.2446032072367,-8240.74996145148,-4553.418410451788,1760.8466901277238,682.6300370065788,1939.660624453896,-3120.3972665887127,-10954.267100283972,-9870.215466147974,-12980.385830527855,-17466.10591286107,-7977.673881932307,-2810.8923058760793,-1077.2755271510073,-8579.178860313014,-5025.361713610197
-8881.656747115283,-11677.5537792005,-7702.865098652086,1856.9042808131169,-118.14268011795846,-25863.396494012122,-18059.642691361278,-2158.378299913908,632.1229432758531,-1100.8664181357935,-8637.591412192896,-3153.838609394274,1894.737544812654,-803.5960950349505,-10767.108515689244,-5026.8675151624175,2265.3529518528985,1359.9270268490438,-8241.063670108191,-4553.983086033872,1760.5957232023538,681.814394499126,1939.346915797183,-3121.0874256334805,-10954.455325478,-9870.027240953945,-12980.699539184568,-17471.313476562496,-7979.74435906661,-2812.6490743536697,-1077.6519775390625,-8581.374820910001,-5028.749767102693
-8883.037065204819,-11679.373289409436,-7703.3042907714835,1857.5316981265416,-117.51526280453328,-25862.392626310648,-18061.33671810752,-2157.43717394377,632.8758440519633,-1101.7448023745887,-8637.528670461554,-3152.144582648026,1893.9219023052008,-804.0352871543481,-10767.4849660773,-5024.734296296771,2264.7255345394733,1359.3623512669612,-8240.812703182823,-4554.108569496556,1761.348623978464,681.3752023797285,1940.4762669613483,-3120.2717831260275,-10953.075007388465,-9868.019505550985,-12979.444704557718,-17475.57991429379,-7980.685485036749,-2813.841167249177,-1077.0873019569797,-8585.327549984579,-5030.443793848941
-8886.425118697316,-11680.565382304943,-7703.49251596551,1858.9120162160768,-116.63687856573804,-25860.008440519632,-18061.085751182152,-2155.303955078125,634.1306786788136,-1101.8075441059311,-8636.399319297389,-3149.76039685701,1893.5454519171465,-804.5372210050883,-10767.108515689244,-5022.350110505756,2264.788276270816,1359.4250929983036,-8239.683352018657,-4553.543893914472,1762.6034586053145,681.1869771857009,1941.0409425434311,-3119.016948499177,-10952.510331806381,-9866.764670924136,-12978.754545512951,-17477.33668277138,-7980.309034648692,-2812.711816085012,-1077.0873019569797,-8588.527378283048,-5029.18895922209
-8893.138483950963,-11680.439898842258,-7702.802356920743,1860.5433012309825,-117.26429587916321,-25858.879089355465,-18060.14462521201,-2152.6060606303968,634.5698707982112,-1102.560444882041,-8634.893517745166,-3146.8742772152546,1893.043518066406,-805.7920556319385,-10766.98303222656,-5020.342375102796,2264.662792808131,1359.1741260729336,-8238.303033929122,-4552.602767944335,1763.419101112767,681.1869771857009,1939.7233661852383,-3117.6993721409845,-10952.761298731752,-9866.701929192792,-12978.880028975636,-17476.081848144528,-7979.179683484528,-2810.515855488024,-1078.7813287032277,-8588.150927894992,-5026.67928996839
-8897.091213025542,-11680.314415379573,-7701.9867144132895,1860.2923343056125,-120.15041552091898,-25861.137791683796,-18060.458333868726,-2151.2257425408607,633.5032613653884,-1104.4426968223167,-8634.768034282482,-3144.741058349609,1891.7259417082128,-807.423340646844,-10767.735933002672,-5019.4012491326575,2263.2824747185955,1357.9192914460834,-8238.052067003751,-4552.163575824938,1762.7916837993419,680.9987519916734,1938.468531558388,-3117.385663484272,-10952.573073537724,-9866.764670924136,-12979.50744628906,-17473.760404084856,-7978.238557514391,-2810.8295641447367,-1081.3537396882707,-8584.323682283097,-5025.738163998252
-8895.271702816612,-11681.00457442434,-7702.676873458057,1858.4728240966797,-123.91491940146996,-25865.09052075837,-18061.52494330155,-2151.664934660259,631.621009425113,-1106.51317395662,-8636.399319297389,-3143.737190648129,1889.7809480365952,-808.6781752736943,-10768.363350316096,-5019.526732595343,2261.0237723902646,1356.3507481625204,-8239.181418167916,-4552.351801018965,1761.097657053094,680.7477850663033,1938.719498483758,-3118.2013059917244,-10951.757431030272,-9866.38822053608,-12980.448572259198,-17472.63105292069,-7978.615007902445,-2813.527458592465,-1081.1027727629007,-8580.810145327916,-5026.742031699732
-8890.879781622634,-11681.130057887023,-7703.680741159537,1857.7199233205688,-125.5462044163754,-25866.784547504623,-18061.148492913497,-2152.1041267796563,631.0563338430304,-1107.2033330013876,-8636.96399487947,-3142.6078394839633,1889.0907889918276,-808.5526918110093,-10767.547707808644,-5019.338507401314,2260.0199046887847,1356.2880064311776,-8239.80883548134,-4551.72438370554,1760.0310476202712,681.1869771857009,1939.9743331106083,-3118.8287233051497,-10950.879046791477,-9865.823544953997,-12981.138731303967,-17472.505569458004,-7978.928716559159,-2814.9705184133422,-1077.7147192704049,-8579.931761089123,-5027.68315766987
-8886.362376965973,-11680.816349230312,-7703.680741159537,1857.6571815892269,-124.7933036402652,-25866.408097116568,-18059.893658286644,-2151.9786433169716,631.2445590370579,-1106.8896243446748,-8635.771901983962,-3142.4823560212785,1889.1535307231695,-807.7370493035567,-10766.606581838507,-5019.2130239386315,2260.1453881514694,1357.4173575953432,-8239.934318944026,-4551.3479333174855,1759.027179918791,681.5006858424135,1940.539008692691,-3120.083557932,-10951.318238910875,-9867.078379580847,-12982.581791124843,-17473.57217889083,-7978.3012992457325,-2815.0960018760275,-1073.7619901958265,-8581.061112253288,-5027.871382863897
-8882.535131354078,-11680.690865767629,-7702.927840383427,1857.3434729325145,-123.35024381938732,-25866.28261365388,-18059.20349924188,-2151.664934660259,631.3073007684004,-1106.6386574193048,-8634.70529255114,-3144.239124498869,1889.3417559171971,-806.4194729453639,-10765.916422793738,-5019.714957789371,2260.4590968081825,1359.0486426102486,-8240.373511063424,-4552.22631755628,1757.9605704859682,681.1869771857009,1940.539008692691,-3122.4050019916726,-10953.012265657122,-9869.39982364052,-12984.275817871092,-17474.701530054994,-7977.862107126334,-2814.845034950657,-1069.8720028525904,-8582.002238223426,-5027.18122381913
-8879.398044786954,-11679.937964991515,-7701.73574748792,1857.6571815892269,-121.27976668508428,-25866.1571301912,-18058.701565391137,-2151.288484272204,631.746492887798,-1105.823014911852,-8634.077875237715,-3146.2468599018293,1890.9102992007604,-803.5960950349505,-10764.222396047491,-5020.2168916401115,2261.5257062410046,1361.7465370579769,-8240.310769332082,-4552.665509675678,1758.5879877993934,682.3790700812089,1941.9193267822263,-3123.346127961811,-10953.70242470189,-9869.525307103204,-12982.770016318873,-17473.07024504009,-7977.422915006938,-2813.9666507118623,-1066.8603997481496,-8581.249337447316,-5026.365581311677
-8876.700150339226,-11678.934097290035,-7701.359297099865,1858.4100823653368,-119.14654781943872,-25865.216004221056,-18057.948664615025,-2151.5394511975737,632.6876188579358,-1104.5054385536591,-8633.387716192945,-3147.627177991365,1893.482710185804,-799.8943328857421,-10761.775468525131,-5020.593342028164,2263.2824747185955,1364.7581401624177,-8239.620610287313,-4551.912608899568,1761.2858822471214,685.5161566483347,1945.056413349352,-3121.9030681409326,-10952.761298731752,-9867.517571700244,-12978.127128199523,-17470.435092323703,-7976.4817890368,-2813.0255247417244,-1066.170240703382,-8579.931761089123,-5026.17735611765
-8876.009991294457,-11678.620388633326,-7702.3004230700035,1858.4728240966797,-118.26816358064347,-25864.52584517629,-18057.82318115234,-2153.296219675164,633.0640692459909,-1103.878021240234,-8633.638683118317,-3149.446688200297,1895.0512534693664,-797.3846636320415,-10760.01870004754,-5021.659951460988,2264.2236006887333,1366.9541007594055,-8239.118676436572,-4551.787125436882,1763.4818428441097,688.3395345587479,1947.7543077970804,-3119.83259100663,-10951.882914492957,-9865.949028416682,-12975.680200677167,-17471.689926950552,-7976.293563842772,-2813.4647168611223,-1066.8603997481496,-8581.061112253288,-5026.8675151624175
-8877.954984966076,-11679.059580752722,-7703.680741159537,1857.3434729325145,-119.27203128212373,-25864.839553833004,-18058.638823659796,-2156.43330624229,632.3739102012232,-1104.0662464342615,-8635.583676789935,-3152.3328078420536,1895.0512534693664,-796.5690211245886,-10759.579507928143,-5023.667686863949,2263.7844085693355,1367.644259804173,-8239.369643361944,-4552.916476601048,1763.042650724712,689.4061439915706,1947.8170495284232,-3119.016948499177,-10952.44759007504,-9866.074511879367,-12977.311485692073,-17476.019106413187,-7977.234689812912,-2814.280359368575,-1068.3034595690272,-8584.574649208469,-5027.4321907445
-8881.029329801859,-11679.49877287212,-7704.49638366699,1855.5239627235808,-121.53073361045433,-25864.90229556435,-18058.82704885382,-2159.444909346731,631.1190755743729,-1103.9407629715768,-8637.716895655582,-3155.4071526778366,1894.1728692305717,-796.1925707365336,-10759.077574077404,-5025.989130923622,2263.031507793225,1367.957968460886,-8239.620610287313,-4554.1713112278985,1761.474107441149,689.7198526482832,1946.8759235582847,-3119.1424319618623,-10952.94952392578,-9866.325478804738,-12979.821154945772,-17476.83474892064,-7978.113074051706,-2813.527458592465,-1070.0602280466176,-8586.33141768606,-5026.804773431074
-8885.860443115233,-11680.628124036284,-7705.876701756528,1852.888810007196,-125.10701229697779,-25865.09052075837,-18058.638823659796,-2162.519254182514,628.9231149773848,-1104.317213359632,-8639.787372789884,-3158.98343136436,1891.7259417082128,-796.6945045872737,-10758.826607152032,-5029.063475759404,2261.7139314350325,1367.5815180728307,-8240.812703182823,-4556.116304899517,1759.7173389635586,688.9042101408305,1945.9975393194895,-3120.2090413946853,-10952.761298731752,-9866.38822053608,-12982.01711554276,-17473.63492062217,-7979.493392141241,-2812.8372995476966,-1071.3778044048108,-8585.954967298003,-5026.114614386307
-8890.252364309212,-11681.443766543738,-7707.884437159488,1850.4418824848372,-128.30684059544612,-25864.839553833004,-18057.948664615025,-2164.966181704872,626.4761874550267,-1104.819147210372,-8641.66962473016,-3162.308743125513,1888.7143386037724,-797.949339214124,-10758.575640226663,-5032.388787520558,2259.768937763414,1366.5776503713505,-8243.636081093233,-4558.93968280993,1757.6468618292556,687.3984085886101,1945.6210889314348,-3122.154035066303,-10952.761298731752,-9867.015637849505,-12983.209208438268,-17470.56057578639,-7980.873710230776,-2812.0216570402445,-1071.0640957480982,-8585.515775178606,-5024.922521490799
-8891.946391055457,-11679.812481528832,-7708.637337935596,1850.1281738281248,-128.11861540141857,-25861.890692459903,-18055.125286704613,-2164.8406982421875,626.2879622609992,-1103.376087389494,-8641.92059165553,-3163.1243856329666,1887.8359543649767,-797.8865974827814,-10757.634514256526,-5033.706363878751,2258.639586599249,1366.4521669086655,-8245.581074764854,-4560.570967824834,1756.4547689337478,687.0846999318975,1946.9386652896276,-3123.0324193050983,-10952.133881418327,-9867.015637849505,-12982.581791124843,-17468.050906532688,-7979.807100797953,-2809.0727956671462,-1069.4955524645352,-8584.072715357732,-5023.479461669921
-8893.389450876335,-11676.675394961707,-7708.637337935596,1851.3202667236324,-125.04427056563529,-25858.06344684801,-18052.05094186883,-2163.64860534668,627.7937638132195,-1100.8664181357935,-8641.481399536131,-3162.4342265881987,1888.7770803351148,-797.2591801693565,-10757.571772525183,-5033.643622147409,2258.074911017167,1366.3266834459805,-8245.518333033511,-4561.072901675575,1755.6391264262948,687.5238920512952,1948.632692035876,-3122.4050019916726,-10951.004530254162,-9866.19999534205,-12981.766148617393,-17467.548972681947,-7978.48952443976,-2806.123934294048,-1070.687645360043,-8583.06884765625,-5024.608812834087
-8894.26783511513,-11674.291209170691,-7708.574596204255,1852.3241344251128,-121.7189588044819,-25855.99296971371,-18050.73336551064,-2163.0839297645966,628.8603732460423,-1099.109649658203,-8642.046075118215,-3161.995034468801,1890.094656693308,-797.3219219006988,-10758.95209061472,-5033.8318473414365,2257.5729771664264,1365.4482992071853,-8244.890915720085,-4561.386610332288,1754.3842917994448,687.3356668572676,1948.8836589612456,-3121.965809872276,-10950.50259640342,-9865.321611103258,-12980.825022647252,-17469.11751596551,-7979.556133872582,-2805.43377524928,-1076.4598846435547,-8584.386424014441,-5027.745899401212
-8890.691556428606,-11672.722665887128,-7705.751218293842,1854.2063863653884,-118.45638877467104,-25854.361684698804,-18049.729497809156,-2161.138936092979,630.6798834549753,-1097.164655986585,-8642.108816849557,-3160.551974647923,1891.4749747828432,-796.7572463186161,-10759.767733122171,-5033.392655222039,2258.200394479852,1364.946365356445,-8243.949789749948,-4560.508226093492,1754.1960666054172,687.2101833945826,1947.8797912597652,-3121.8403264095905,-10950.50259640342,-9864.819677252515,-12978.378095124895,-17469.054774234162,-7980.246292917351,-2805.43377524928,-1082.232123927066,-8585.390291715923,-5029.314442684776
-8882.911581742135,-11671.907023379676,-7700.229945935699,1856.778797350432,-115.44478567023025,-25852.855883146585,-18048.28643798828,-2157.625399137798,634.1306786788136,-1095.0314371209395,-8640.540273565994,-3157.414888080797,1892.9180346037208,-795.5651534231084,-10759.45402446546,-5031.761370207134,2259.768937763414,1364.6326566997325,-8242.883180317125,-4559.065166272615,1755.0744508442124,687.1474416632401,1946.6249566329152,-3121.777584678248,-10950.628079866106,-9864.945160715202,-12976.24487625925,-17467.862681338658,-7978.865974827816,-2805.559258711965,-1082.2948656584083,-8584.700132671154,-5028.059608057924
-8875.570799175059,-11671.78153991699,-7697.155601099917,1858.6610492907073,-113.3743085359272,-25852.040240639133,-18047.408053749485,-2154.8020212273846,637.330506977282,-1094.0275694194593,-8638.971730282432,-3154.340543245014,1893.8591605738588,-795.8788620798209,-10759.830474853512,-5030.318310386256,2260.4590968081825,1363.5033055355673,-8242.318504735042,-4558.375007227847,1755.1371925755548,685.8298653050472,1945.8720558568048,-3122.3422602603305,-10951.255497179533,-9865.635319759971,-12976.621326647304,-17469.305741159536,-7977.611140200965,-2806.123934294048,-1078.718586971885,-8584.888357865182,-5025.612680535567
-8871.429844906454,-11670.77767221551,-7698.222210532739,1860.0413673802425,-111.80576525236428,-25851.161856400337,-18046.71789470472,-2152.731544093081,639.5264675742701,-1093.902085956774,-8637.591412192896,-3151.8308739913127,1894.4238361559412,-797.3846636320415,-10760.834342554996,-5029.126217490748,2260.0199046887847,1362.1857291773745,-8242.130279541014,-4557.998556839792,1754.6980004561572,684.0103550961143,1945.74657239412,-3122.7814523797283,-10952.196623149668,-9866.074511879367,-12978.378095124895,-17472.944761577404,-7977.109206350226,-2805.308291786595,-1076.9618184942947,-8585.892225566662,-5023.667686863949
-8871.618070100481,-11669.02090373792,-7700.4809128610705,1861.170718544408,-111.1156062075966,-25850.346213892884,-18045.65128527189,-2150.786550421464,640.7813022011204,-1093.9648276881167,-8636.273835834703,-3149.572171662983,1894.1728692305717,-798.7022399902343,-10761.46175986842,-5028.122349789268,2258.639586599249,1360.9936362818667,-8242.067537809673,-4557.810331645765,1754.7607421874995,682.5672952752363,1945.5583472000924,-3122.655968917043,-10952.94952392578,-9866.513703998764,-12979.00551243832,-17475.39168909976,-7976.105338648744,-2803.3632981149767,-1076.522626374897,-8586.080450760692,-5022.224627043072
-8874.817898398951,-11667.326876991672,-7701.673005756577,1862.425553171258,-111.4293148643092,-25850.2207304302,-18044.459192376387,-2148.9670402125307,640.6558187384354,-1094.0903111508017,-8635.20722640188,-3147.627177991365,1893.1690015290912,-799.9570746170845,-10761.775468525131,-5027.243965550472,2257.1337850470286,1359.4878347296462,-8241.816570884303,-4557.93581510845,1754.7607421874995,681.6261693050985,1945.1191550806948,-3122.593227185701,-10953.45145777652,-9867.015637849505,-12977.4997108861,-17473.3839536968,-7974.787762290552,-2801.7320131000715,-1075.7697255987869,-8585.013841327867,-5021.032534147564
-8877.139342458624,-11667.01316833496,-7701.422038831206,1862.676520096628,-113.18608334189966,-25851.475565057048,-18043.83177506296,-2148.151397705078,639.0872754548725,-1095.219662314967,-8635.019001207853,-3146.3723433645146,1891.7259417082128,-801.5256179006474,-10762.842077957956,-5026.553806505704,2256.1299173455486,1357.7938079833982,-8241.75382915296,-4558.124040302477,1753.819616217362,680.4340764095908,1944.2407708418996,-3123.471611424496,-10954.204358552628,-9868.019505550985,-12975.931167602535,-17468.61558211477,-7973.9721197830995,-2802.233946950812,-1075.4560169420743,-8583.445298044304,-5021.158017610248
-8876.637408607883,-11667.76606911107,-7700.543654592413,1861.798135857833,-115.50752740157276,-25853.483300460008,-18044.27096718236,-2148.527848093133,637.330506977282,-1096.9136890612149,-8635.520935058594,-3145.5567008570615,1890.7220740067328,-802.5922273334702,-10764.159654316149,-5025.738163998252,2256.004433882864,1356.6017150878904,-8242.00479607833,-4557.810331645765,1752.9412319785667,679.1792417827405,1942.9859362150487,-3124.6009625886613,-10954.894517597399,-9869.023373252465,-12976.056651065222,-17466.35687978644,-7974.034861514441,-2805.057324861225,-1075.3305334793893,-8582.692397268194,-5022.601077431126
-8876.825633801913,-11669.146387200606,-7699.790753816303,1861.2334602757503,-116.51139510305303,-25854.298942967464,-18045.400318346525,-2149.2180071379007,636.5148644698293,-1097.79207330001,-8635.520935058594,-3144.741058349609,1890.9102992007604,-802.5294856021278,-10764.661588166888,-5024.420587640059,2256.9455598530008,1356.538973356548,-8241.377378764904,-4556.618238750257,1753.819616217362,679.1165000513979,1942.4840023643087,-3124.0362870065787,-10954.267100283972,-9868.584181133068,-12977.186002229388,-17467.799939607317,-7974.536795365182,-2807.2532854582128,-1075.2677917480469,-8583.570781506989,-5024.420587640059
-8881.907714040655,-11671.718798185648,-7699.288819965562,1861.1079768130649,-116.19768644634044,-25853.734267385375,-18046.906119898744,-2149.7826827199838,636.2638975444593,-1098.2940071507503,-8634.266100431742,-3143.4862237227585,1891.4122330515008,-802.0902934827302,-10764.912555092258,-5022.726560893811,2258.325877942537,1357.2291324013156,-8239.49512682463,-4554.547761615952,1755.7018681576376,680.1831094842207,1942.5467440956515,-3121.4638760215353,-10952.196623149668,-9866.639187461453,-12978.00164473684,-17470.435092323703,-7974.787762290552,-2806.7513516074728,-1075.0168248226767,-8585.578516909949,-5025.738163998252
-8888.181887174907,-11673.726533588608,-7698.661402652137,1860.6060429623249,-115.88397778962786,-25853.79700911672,-18048.349179719626,-2149.5317157946133,636.1384140817742,-1098.733199270148,-8632.634815416837,-3142.0431639018807,1891.600458245528,-801.7138430946752,-10764.787071629573,-5020.718825490851,2260.0826464201273,1358.483967028166,-8237.487391421668,-4552.100834093595,1757.1449279785152,681.1869771857009,1942.7349692896792,-3119.1424319618623,-10950.314371209395,-9865.13338590923,-12978.00164473684,-17473.007503308745,-7974.913245753235,-2805.496516980623,-1073.7619901958265,-8587.335285387539,-5026.491064774362
-8888.370112368933,-11673.601050125924,-7698.347693995424,1859.790400454872,-116.0722029836554,-25855.553777594312,-18049.541272615126,-2149.280748869244,636.1384140817742,-1099.235133120888,-8631.94465637207,-3141.2902631257707,1891.9769086335832,-801.6511013633326,-10763.97142912212,-5018.773831819232,2261.6511897036903,1359.7388016550162,-8236.734490645558,-4550.155840421978,1757.8350870232832,681.6261693050985,1942.6722275583363,-3118.954206767835,-10950.314371209395,-9865.698061491312,-12978.378095124895,-17474.513304860968,-7974.850504021894,-2805.68474217465,-1073.0090894197162,-8587.272543656196,-5026.051872654964
-8882.660614816765,-11672.722665887128,-7699.414303428246,1858.9120162160768,-116.88784549110812,-25858.314413773383,-18051.109815898693,-2150.472841764751,635.5737384996916,-1100.364484285053,-8632.19562329744,-3141.2902631257707,1892.3533590216384,-801.8393265573602,-10763.97142912212,-5017.330771998354,2262.215865285773,1360.0525103117288,-8236.859974108243,-4549.151972720497,1757.9605704859682,681.5634275737561,1941.2291677374587,-3118.8287233051497,-10951.130013716847,-9866.513703998764,-12980.134863602487,-17473.57217889083,-7974.787762290552,-2807.4415106522406,-1075.2050500167043,-8586.017709029347,-5024.859779759457
-8877.892243234734,-11673.224599737869,-7702.363164801345,1857.4689563951993,-118.83283916272615,-25860.510374370373,-18052.803842644946,-2153.3589614065068,633.691486559416,-1102.372219688014,-8633.45045792429,-3142.356872558593,1891.788683439556,-802.5922273334702,-10764.661588166888,-5017.017063341642,2261.2119975842925,1359.2996095356186,-8237.173682764957,-4549.402939645867,1757.207669709858,680.9360102603309,1939.9115913792657,-3118.2013059917244,-10951.631947567586,-9866.450962267423,-12983.271950169612,-17472.254602532637,-7976.795497693512,-2810.264888562654,-1078.5931035092,-8586.645126342773,-5025.361713610197
-8879.021594398897,-11675.106851678143,-7705.939443487869,1855.084770604184,-121.7817005358244,-25861.890692459903,-18053.80771034642,-2156.8724983616876,630.4289165296052,-1104.5054385536591,-8635.458193327251,-3144.992025274979,1890.0319149619647,-803.909803691663,-10764.47336297286,-5018.522864893863,2258.7650700619342,1357.9192914460834,-8237.173682764957,-4551.034224660772,1756.0783185456924,679.9321425588506,1940.7272338867183,-3118.6404981111223,-10952.635815269068,-9866.639187461453,-12986.158069811368,-17471.43896002518,-7980.246292917351,-2812.4608491596414,-1079.5969712106803,-8588.903828671104,-5027.055740356444
-8884.542866757041,-11676.738136693048,-7708.072662353514,1852.951551738538,-124.54233671489511,-25862.580851504677,-18053.870452077765,-2159.8841014661284,627.1663464997944,-1106.0112401058796,-8637.152220073498,-3149.0074960809,1887.961437827662,-804.5999627364307,-10763.281270077352,-5020.969792416221,2256.2554008082334,1356.9781654759456,-8236.671748914214,-4552.916476601048,1755.7018681576376,679.492950439453,1942.7349692896792,-3118.4522729170944,-10952.635815269068,-9866.011770148025,-12986.597261930763,-17469.36848289088,-7982.19128658897,-2812.0216570402445,-1080.663580643503,-8590.158663297954,-5027.557674207184
-8889.185754876387,-11677.616520931844,-7709.641205637076,1851.1947832609476,-126.55007211785566,-25862.769076698703,-18053.180293032998,-2162.2055455258014,625.2840945595188,-1106.0739818372224,-8639.034472013775,-3153.650384200246,1886.5183780067844,-804.1607706170333,-10762.151918913187,-5023.918653789319,2255.1260496440686,1357.1663906699732,-8237.80110007838,-4554.735986809981,1755.8900933516652,680.2458512155632,1944.6799629612967,-3117.2601800215866,-10950.50259640342,-9863.690326088352,-12984.02485094572,-17468.176389995373,-7982.19128658897,-2809.1355373984884,-1083.9888924046563,-8590.033179835269,-5027.055740356444
-8889.373980070415,-11677.365554006476,-7711.021523726613,1850.4418824848372,-126.86378077456824,-25861.82795072857,-18051.925458406145,-2163.7113470780214,625.4095780222038,-1104.6309220163444,-8641.41865780479,-3158.0423053942222,1886.204669350072,-802.5922273334702,-10760.144183510227,-5027.118482087787,2255.377016569438,1359.0486426102486,-8241.377378764904,-4557.057430869654,1756.26654373972,682.0026196931537,1947.1268904836552,-3117.887597335012,-10948.620344463146,-9862.247266267472,-12979.319221095033,-17468.8038073088,-7981.438385812858,-2805.8102256373354,-1085.1809853001644,-8588.966570402446,-5025.612680535567
-8886.550602160001,-11675.357818603512,-7711.2724906519825,1850.8810746042348,-125.73442961040294,-25860.322149176343,-18050.419656853926,-2165.2171486302423,626.7271543803968,-1102.9996370014387,-8643.238168013722,-3162.4342265881987,1886.5183780067844,-801.0236840499075,-10757.885481181896,-5031.133952893709,2255.941692151521,1361.1191197445517,-8245.894783421565,-4560.19451743678,1756.3920272024052,683.7593881707442,1949.1973676179584,-3121.0874256334805,-10949.059536582545,-9863.313875700296,-12975.680200677167,-17469.18025769685,-7980.999193693461,-2804.053457159745,-1082.734057777806,-8587.837219238281,-5023.542203401264
-8883.162548667506,-11672.408957230416,-7710.205881219162,1851.3830084549752,-123.72669420744242,-25858.816347624124,-18048.28643798828,-2167.1621423018605,627.6682803505345,-1102.372219688014,-8643.92832705849,-3167.3280816329147,1886.6438614694691,-800.3335250051396,-10756.94435521176,-5035.525874087684,2255.377016569438,1362.0602457146895,-8249.22009518272,-4563.331604003904,1755.7018681576376,684.3240637528269,1948.7581754985608,-3124.0362870065787,-10951.694689298927,-9865.886286685341,-12975.429233751798,-17468.61558211477,-7979.869842529296,-2803.42603984632,-1080.287130255448,-8586.33141768606,-5021.597209729646
-8878.958852667554,-11668.707195081208,-7707.821695428145,1852.198650962428,-120.52686590897407,-25856.49490356445,-18044.83564276444,-2167.852301346628,628.5466645893297,-1101.3683519865335,-8643.112684551037,-3170.967102050781,1886.8320866634967,-799.8943328857421,-10756.94435521176,-5038.474735460783,2254.122181942588,1362.1229874460319,-8249.596545570772,-4565.151114212838,1754.572516993472,683.6339047080592,1945.6838306627772,-3125.165638170744,-10955.647418373508,-9869.588048834546,-12976.119392796563,-17465.980429398383,-7976.732755962171,-2800.8536288612763,-1078.34213658383,-8583.319814581617,-5019.652216058028
-8874.441448010894,-11664.942691200657,-7704.810092323704,1853.892677708676,-116.95058722245064,-25853.483300460008,-18041.761297928657,-2166.5347249884358,630.0524661415501,-1099.235133120888,-8641.732366461501,-3172.1591949462886,1887.3340205142367,-799.392399035002,-10757.383547331156,-5039.604086624948,2253.1810559724504,1361.8092787893193,-8247.651551899155,-4566.029498451634,1753.317682366622,682.1281031558387,1941.9820685135687,-3125.4793468274565,-10959.098213597346,-9873.289810983759,-12975.617458945826,-17462.65511763723,-7973.658411126387,-2797.089124980725,-1075.5187586734169,-8580.496436671207,-5018.020931043123
-8871.618070100481,-11662.746730603669,-7702.865098652086,1855.147512335526,-114.56640143143503,-25851.35008159436,-18041.57307273463,-2164.966181704872,632.2484267385382,-1097.4783646432975,-8641.606882998816,-3171.9709697522608,1887.89869609632,-799.3296573036594,-10757.94822291324,-5040.607954326429,2252.741863853053,1361.1191197445517,-8246.647684197676,-4567.535300003854,1752.0001060084292,680.6223016036183,1939.7861079165807,-3125.9812806781965,-10960.290306492854,-9874.732870804637,-12975.178266826428,-17463.094309756627,-7973.1564772756465,-2795.7715486225325,-1074.1384405838814,-8580.119986283153,-5017.330771998354
-8871.30436144377,-11662.621247140984,-7702.551389995373,1855.2102540668689,-113.62527546129728,-25850.97363120631,-18043.769033331617,-2164.4015061227897,634.0051952161286,-1097.0391725238999,-8643.17542628238,-3171.2808107074934,1888.2124047530324,-799.8943328857421,-10758.701123689349,-5042.051014147306,2251.9262213456,1359.6133181923312,-8247.839777093184,-4569.731260600843,1750.7452713815787,679.0537583200554,1938.970465409128,-3127.236115305047,-10960.353048224197,-9874.230936953894,-12975.99390933388,-17466.545104980465,-7974.474053633839,-2797.3400919060955,-1074.828599628649,-8581.500304372687,-5017.518997192382
-8871.053394518398,-11662.872214066352,-7701.861230950606,1855.7121879176088,-113.12334161055713,-25850.346213892884,-18044.459192376387,-2162.832962839226,635.4482550370066,-1096.3490134791323,-8643.61461840178,-3168.896624916478,1889.40449764854,-800.0198163484272,-10758.638381958004,-5041.674563759251,2251.6752544202295,1358.5467087595084,-8248.153485749894,-4570.107710988897,1750.9334965756063,678.1753740812602,1939.5351409912107,-3127.361598767732,-10959.725630910772,-9872.9133605957,-12975.303750289111,-17466.10591286107,-7974.850504021894,-2797.591058831465,-1075.0795665540193,-8581.061112253288,-5017.518997192382
-8869.233884309466,-11662.370280215611,-7699.539786890931,1858.0336319772816,-111.93124871504932,-25848.087511564558,-18042.57694043611,-2158.9429754959906,637.6442156339946,-1094.3412780761716,-8641.41865780479,-3164.065511603104,1891.9769086335832,-799.0786903782893,-10757.069838674444,-5038.600218923468,2253.6829898231904,1359.1741260729336,-8245.957525152908,-4567.158849615799,1753.317682366622,678.9282748573704,1941.5428763941716,-3124.5382208573187,-10957.215961657072,-9870.65465826737,-12971.601988139904,-17459.83173972682,-7972.529059962221,-2795.332356503135,-1075.6442421361019,-8577.296608372737,-5015.887712177477
-8868.230016607988,-11663.185922723069,-7697.845760144684,1860.1041091115849,-111.30383140162417,-25846.581710012328,-18041.886781391346,-2155.17847161544,639.2127589175575,-1092.6472513299238,-8639.2226972078,-3158.669722707648,1894.3610944245988,-798.7649817215766,-10756.25419616699,-5034.64748984889,2256.5691094649465,1359.9270268490438,-8243.071405511153,-4563.268862272564,1755.3881595009248,680.0576260215357,1943.362386603104,-3120.773716976768,-10953.639682970548,-9867.956763819644,-12967.52377560264,-17453.118374473168,-7969.705682051808,-2794.1402636076273,-1076.5853681062397,-8572.967428910104,-5014.570135819284
-8869.673076428864,-11665.695591976766,-7698.410435726768,1860.2295925742696,-112.30769910310443,-25847.522835982472,-18043.769033331617,-2153.9236369885894,638.5853416041323,-1093.274668643349,-8639.285438939143,-3154.591510170384,1894.9257700066812,-800.3962667364823,-10757.885481181896,-5031.573145013105,2257.7612023604543,1359.0486426102486,-8241.126411839532,-4561.261126869603,1754.8234839188424,678.8027913946854,1942.6722275583363,-3119.7698492752875,-10952.635815269068,-9867.454829968903,-12965.829748856391,-17450.859672144838,-7969.3292316637535,-2795.646065159848,-1076.0206925241569,-8571.461627357883,-5015.887712177477
-8873.061129921358,-11667.577843917043,-7700.418171129728,1859.1629831414473,-114.37817623740747,-25850.095246967518,-18046.341444316666,-2155.0529881527546,636.0129306190892,-1095.9098213597347,-8640.226564909282,-3152.709258230109,1893.1690015290912,-803.3451281095805,-10761.148051211707,-5030.318310386256,2256.3181425395765,1356.538973356548,-8240.624477988793,-4561.135643406918,1752.3138146651415,675.0382875141344,1938.468531558388,-3122.4050019916726,-10956.46306088096,-9870.90562519274,-12967.272808677271,-17454.498692562705,-7971.587933992083,-2797.9675092195207,-1074.8913413599917,-8574.09678007427,-5018.146414505807
-8876.57466687654,-11667.389618723015,-7701.798489219263,1858.5983075593645,-115.82123605828536,-25852.79314141524,-18047.470795480825,-2156.3705645109476,633.7542282907585,-1098.482232344778,-8639.975597983912,-3152.3328078420536,1891.098524394788,-805.1018965871709,-10763.532237002722,-5030.318310386256,2254.3104071366156,1354.2802710282172,-8241.50286222759,-4561.6375772576575,1749.929628874126,671.9012009470085,1934.1393520957545,-3126.545956260279,-10962.109816701788,-9875.987705431486,-12969.594252736944,-17459.76899799547,-7973.909378051759,-2798.845893458316,-1074.2639240465664,-8577.359350104078,-5019.024798744603
-8878.707885742186,-11666.51123448422,-7701.296555368522,1859.9158839175568,-115.31930220754522,-25854.110717773438,-18046.341444316666,-2155.68040546618,633.566003096731,-1099.4233583149155,-8638.030604312291,-3151.2034566778884,1890.7220740067328,-804.4744792737457,-10763.72046219675,-5029.502667878803,2253.933956748561,1354.2175292968748,-8242.130279541014,-4560.8219347502045,1749.678661948756,671.3992670962684,1933.386451319644,-3128.8046585886095,-10964.556744224146,-9878.120924297129,-12970.786345632452,-17461.40028301038,-7974.097603245784,-2797.9675092195207,-1073.1973146137436,-8577.171124910052,-5019.526732595343
-8880.652879413805,-11667.201393528985,-7699.790753816303,1861.7353941264903,-113.87624238666734,-25854.298942967464,-18045.149351421154,-2153.6099283318767,634.5698707982112,-1099.486100046258,-8635.520935058594,-3149.070237812243,1891.4749747828432,-803.0941611842104,-10762.71659449527,-5027.118482087787,2255.063307912726,1355.7233308490952,-8240.938186645508,-4558.249523765162,1751.5609138890316,672.8423269171464,1935.2059615285768,-3127.298857036389,-10962.48626708984,-9875.924963700145,-12972.292147184671,-17461.086574353667,-7973.407444201018,-2797.277350174753,-1072.6953807630036,-8576.543707596627,-5020.2168916401115
-8881.594005383942,-11669.460095857316,-7699.226078234221,1862.3628114399155,-113.18608334189966,-25854.48716816149,-18046.153219122632,-2152.0413850483137,635.636480231034,-1099.486100046258,-8634.015133506371,-3147.3134693346524,1892.4788424843236,-802.0275517513877,-10761.649985062448,-5024.420587640059,2256.7573346589734,1357.2918741326582,-8238.930451242546,-4555.614371048776,1753.6313910233343,675.2892544395045,1938.0293394389903,-3124.6009625886613,-10958.784504940631,-9872.285943282275,-12975.052783363742,-17463.031568025286,-7973.846636320414,-2798.155734413548,-1074.201182315224,-8579.618052432412,-5020.844308953536
-8880.464654219777,-11672.659924155785,-7701.108330174495,1860.2295925742696,-115.50752740157276,-25856.68312875848,-18049.85498127184,-2152.8570275557668,635.1972881116365,-1100.8036764044507,-8634.768034282482,-3147.187985871967,1892.0396503649256,-801.8393265573602,-10762.089177181844,-5023.918653789319,2257.259268509714,1357.6683245207132,-8238.742226048518,-4555.175178929378,1753.5059075606496,677.2342481111225,1939.660624453896,-3123.7853200812087,-10956.776769537671,-9870.466433073345,-12979.00551243832,-17468.67832384611,-7976.356305574115,-2801.9202382941,-1077.0873019569797,-8585.829483835318,-5022.287368774413
-8880.025462100377,-11676.173461110968,-7704.49638366699,1855.900413111636,-120.52686590897407,-25861.07504995245,-18053.55674342105,-2155.7431471975224,632.6248771265932,-1104.1917298969468,-8637.089478342155,-3148.2545953047897,1889.9691732306228,-803.0314194528678,-10763.97142912212,-5025.800905729594,2256.1299173455486,1356.915423744603,-8240.373511063424,-4556.618238750257,1751.372688695004,677.3597315738075,1938.844981946443,-3124.475479125976,-10957.4041868511,-9871.156592118112,-12982.895499781556,-17474.88975524902,-7979.179683484528,-2806.374901219418,-1079.5969712106803,-8589.844954641241,-5023.730428595291
-8882.409647891394,-11677.804746125872,-7706.4413773386095,1853.1397769325656,-124.4795949835526,-25864.96503729569,-18054.686094585217,-2158.0645912571954,629.3623070967824,-1106.76414088199,-8638.720763357062,-3149.321204737613,1888.0241795590048,-804.7254461991158,-10765.351747211656,-5027.68315766987,2254.3104071366156,1356.0997812371504,-8242.193021272355,-4558.625974153217,1749.2394698293583,676.1048969469572,1938.0293394389903,-3125.542088558799,-10958.909988403318,-9872.34868501362,-12984.526784796462,-17476.897490651983,-7979.74435906661,-2807.566994114926,-1081.6047066136407,-8588.33915308902,-5023.604945132606
-8887.303502936113,-11676.926361887075,-7706.064926950554,1852.8260682758528,-126.55007211785566,-25866.470838847912,-18053.870452077765,-2158.8802337646484,626.2879622609992,-1107.5170416581,-8638.65802162572,-3149.8858803196954,1886.3301528127568,-805.8547973632811,-10765.539972405684,-5028.498800177323,2252.4281551963404,1355.6605891177528,-8243.071405511153,-4560.131775705438,1747.8591517398231,674.9755457827919,1938.6567567524155,-3126.2322476035665,-10959.9138561048,-9872.976102327044,-12983.585658826323,-17474.325079666938,-7977.924848857677,-2805.371033517937,-1081.8556735390107,-8583.759006701017,-5023.479461669921
-8893.954126458417,-11675.797010722912,-7705.688476562499,1852.449617887798,-128.2440988641036,-25866.847289235964,-18053.80771034642,-2159.821359734786,624.0292599326684,-1108.0817172401828,-8638.21882950632,-3150.576039364463,1884.071450484426,-806.4822146767062,-10765.289005480312,-5029.000734028064,2250.92235364412,1355.2841387296976,-8243.636081093233,-4561.072901675575,1746.9180257696853,674.7245788574218,1938.970465409128,-3126.734181454307,-10960.41578995554,-9873.917228297183,-12982.45630766216,-17471.313476562496,-7976.042596917403,-2803.4887815776615,-1078.5931035092,-8580.998370521946,-5024.483329371402
-8899.161690159846,-11676.863620155735,-7707.4452450400895,1850.2536572908095,-130.0636090730366,-25868.353090788183,-18055.940929212065,-2162.017320331774,622.3352331864206,-1109.4620353297182,-8639.348180670486,-3152.4582913047384,1881.3108143053555,-807.172373721474,-10765.853681062395,-5030.130085192228,2249.9184859426396,1354.5312379535872,-8244.702690526057,-4562.829670153164,1746.416091918945,674.7873205887644,1938.468531558388,-3127.738049155787,-10960.604015149567,-9875.423029849402,-12983.083724975584,-17471.815410413237,-7976.795497693512,-2805.18280832391,-1075.1423082853617,-8582.378688611481,-5025.487197072882
-8898.722498040452,-11679.875223260176,-7711.147007189297,1846.551895141601,-131.82037755062703,-25871.1764686986,-18059.078015779192,-2165.2171486302423,620.3274977834601,-1111.0933203446236,-8642.108816849557,-3155.8463447972345,1878.738403320312,-808.4272083483244,-10767.296740883272,-5031.698628475791,2248.914618241159,1353.2764033267372,-8245.518333033511,-4565.464822869552,1746.03964153089,674.5990953947368,1939.0332071404705,-3128.55369166324,-10960.47853168688,-9876.677864476253,-12985.656135960628,-17475.83088121916,-7980.622743305406,-2810.264888562654,-1075.3305334793893,-8587.272543656196,-5026.491064774362
-8892.448324906196,-11682.196667319848,-7714.221352025082,1843.979484156558,-132.19682793868213,-25872.494045056792,-18060.458333868726,-2167.6640761526005,618.5707293058696,-1111.5952541953639,-8643.865585327148,-3159.046173095702,1877.6717938874892,-809.4310760498045,-10767.861416465355,-5032.639754445929,2248.0989757337065,1352.5235025506267,-8245.643816496195,-4567.347074809827,1745.7886746055199,674.6618371260793,1940.9782008120883,-3128.9928837826374,-10960.353048224197,-9876.803347938938,-12987.852096557615,-17478.654259129573,-7983.383379484477,-2813.5902003238075,-1077.4010106136923,-8590.59785541735,-5026.742031699732
-8884.229158100328,-11681.631991737764,-7714.221352025082,1844.7323849326683,-130.1890925357216,-25870.2980844598,-18058.889790585166,-2168.2914934660257,618.6962127685546,-1109.9012274491158,-8643.42639320775,-3160.2382659912105,1878.3619529322568,-808.6154335423519,-10766.606581838507,-5032.953463102642,2248.1617174650487,1353.3391450580796,-8246.145750346934,-4567.472558272512,1746.54157538163,675.8539300215871,1942.6722275583363,-3128.8046585886095,-10959.851114373456,-9875.360288118061,-12986.534520199422,-17476.395556801242,-7981.752094469572,-2811.3314979954766,-1077.8402027330899,-8587.899960969622,-5024.169620714689
-8879.523528249638,-11679.122322484063,-7711.837166234067,1846.551895141601,-127.80490674470597,-25867.349223086705,-18056.380121331465,-2168.3542351973683,620.07653085809,-1107.7052668521278,-8642.861717625665,-3160.6147163792657,1879.3030789023949,-806.9214067961038,-10765.163522017629,-5033.3299134906965,2248.6636513157887,1354.59397968493,-8246.898651123047,-4566.907882690429,1747.7964100084805,677.17150637978,1943.4878700657891,-3127.4243404990743,-10958.533538015265,-9872.787877133018,-12982.393565930815,-17471.752668681896,-7979.367908678557,-2807.1905437268706,-1076.7108515689247,-8582.943364193565,-5021.534467998304
-8881.029329801859,-11677.679262663187,-7709.515722174394,1846.7401203356287,-127.1774894312808,-25866.031646728512,-18054.811578047906,-2168.981652510793,620.7666899028577,-1106.76414088199,-8643.112684551037,-3161.9322927374587,1878.9893702456825,-806.1685060199937,-10764.787071629573,-5034.14555599815,2248.5381678531044,1354.9076883416424,-8247.400584973788,-4566.907882690429,1748.110118665193,677.296989842465,1943.550611797132,-3126.1695058722244,-10957.341445119757,-9871.093850386767,-12978.440836856238,-17468.992032502825,-7979.430650409898,-2805.998450831363,-1074.8913413599917,-8581.939496492083,-5021.471726266961
-8886.864310816714,-11678.620388633326,-7708.260887547543,1845.9872195595187,-128.36958232678865,-25865.278745952404,-18054.05867727179,-2169.6090698242188,620.0137891267474,-1107.3288164640724,-8643.42639320775,-3164.1282533344465,1878.048244275545,-806.2312477513361,-10764.787071629573,-5035.274907162315,2247.7852670769935,1354.4057544909024,-8247.2751015111,-4566.970624421771,1747.608184814453,676.6068307976973,1942.860452752364,-3125.7303137528265,-10957.466928582442,-9871.470300774825,-12976.684068378649,-17467.925423070003,-7979.932584260639,-2806.6886098761306,-1073.2600563450862,-8584.449165745782,-5022.224627043072
-8891.820907592772,-11680.690865767629,-7708.072662353514,1845.548027440121,-130.25183426706414,-25864.776812101663,-18053.995935540446,-2170.1737454063014,618.131537186472,-1108.458167628238,-8643.99106878983,-3166.6379225881474,1877.0443765740645,-806.9841485274465,-10764.47336297286,-5036.843450445876,2246.844141106856,1353.2764033267372,-8246.710425929019,-4567.221591347142,1746.9807675010277,675.6029630962171,1941.9193267822263,-3125.2911216334287,-10958.533538015265,-9872.59965193899,-12977.436969154758,-17466.85881363718,-7979.1169417531855,-2807.2532854582128,-1073.0718311510586,-8586.519642880088,-5022.601077431126
-8892.385583174855,-11682.00844212582,-7709.20201351768,1844.6069014699835,-132.19682793868213,-25865.15326248972,-18054.05867727179,-2171.3658383018087,616.4375104402241,-1109.2738101356906,-8645.43412861071,-3169.022108379163,1876.6051844546664,-807.7370493035567,-10763.97142912212,-5038.725702386153,2246.1539820620887,1352.398019087942,-8246.271233809619,-4568.162717317279,1746.7298005756577,674.8500623201069,1942.0448102449116,-3124.7891877826887,-10958.659021477948,-9872.223201550934,-12979.00551243832,-17465.10204515959,-7977.673881932307,-2807.002318532843,-1074.1384405838814,-8585.390291715923,-5022.099143580385
-8890.126880846525,-11681.50650827508,-7710.833298532586,1843.728517231188,-133.2006956401624,-25864.71407037032,-18053.05480957031,-2173.310831973427,616.3747687088816,-1109.0228432103206,-8647.065413625616,-3170.904360319438,1877.1698600367492,-807.4860823781866,-10763.46949527138,-5040.921662983141,2246.1539820620887,1353.0254364013667,-8246.961392854388,-4569.91948579487,1747.357217889083,674.9755457827919,1943.6133535284744,-3125.165638170744,-10957.4041868511,-9870.780141730056,-12980.072121871144,-17463.094309756627,-7976.670014230827,-2805.559258711965,-1074.5148909719367,-8582.315946880137,-5020.781567222193
-8888.119145443565,-11679.937964991515,-7711.774424502723,1843.477550305818,-132.57327832673724,-25863.208268818096,-18051.79997494346,-2175.5695343017574,617.3158946790193,-1108.3954258968954,-8648.63395690918,-3172.9748374537417,1877.985502544202,-806.6076981393913,-10763.72046219675,-5043.933266087582,2245.9030151367183,1353.903820640162,-8249.408320376748,-4572.115446391857,1747.5454430831105,675.351996170847,1944.8681881553243,-3127.361598767732,-10957.215961657072,-9870.591916536028,-12981.703406886048,-17462.65511763723,-7977.2974315442525,-2803.67700677169,-1073.6365067331412,-8580.621920133892,-5019.652216058028
-8886.174151771946,-11678.306679976611,-7711.335232383326,1843.728517231188,-130.4400594610917,-25861.82795072857,-18051.172557630038,-2176.7616271972647,618.6962127685546,-1107.5170416581,-8649.63782461066,-3175.170798050729,1878.738403320312,-805.7920556319385,-10764.41062124152,-5046.442935341282,2245.9030151367183,1354.2175292968748,-8251.792506167762,-4572.993830630653,1747.357217889083,675.5402213648745,1944.6799629612967,-3129.4948176333774,-10958.031604164524,-9871.407559043482,-12983.271950169612,-17464.91381996556,-7978.552266171104,-2802.8613642642367,-1071.9424799868934,-8580.55917840255,-5019.463990864
-8883.288032130193,-11676.863620155735,-7709.95491429379,1844.418676275956,-127.8676484760485,-25860.824083027084,-18051.172557630038,-2176.1342098838404,621.0803985595702,-1106.0739818372224,-8649.95153326737,-3176.1746657522094,1879.7422710217925,-804.7881879304584,-10764.912555092258,-5047.070352654708,2247.1578497635687,1354.4057544909024,-8252.043473093132,-4571.67625427246,1747.5454430831105,676.1048969469572,1943.4251283344468,-3128.8046585886095,-10958.031604164524,-9871.65852596885,-12984.02485094572,-17468.992032502825,-7979.74435906661,-2803.67700677169,-1070.436678434673,-8580.998370521946,-5020.718825490851
-8881.029329801859,-11675.734268991568,-7709.578463905735,1844.920610126696,-126.23636346114309,-25860.824083027084,-18052.176425331516,-2175.13034218236,623.4018426192433,-1105.1955975984272,-8650.516208849454,-3176.1746657522094,1880.4324300665603,-804.3489958110606,-10765.72819759971,-5046.88212746068,2248.7891347784744,1354.2175292968748,-8251.22783058568,-4570.295936182924,1747.4199596204253,676.5440890663548,1942.4840023643087,-3126.6086979916217,-10956.651286074988,-9870.90562519274,-12984.338559602435,-17472.63105292069,-7981.563869275542,-2805.872967368677,-1071.1268374794406,-8583.06884765625,-5022.663819162469
-8880.339170757092,-11675.420560334856,-7710.896040263927,1845.2343187834083,-125.73442961040294,-25861.07504995245,-18053.995935540446,-2174.62840833162,624.217485126696,-1105.7602731805096,-8651.080884431536,-3176.1746657522094,1880.3696883352177,-804.9764131244859,-10766.920290495218,-5046.693902266652,2249.353810360557,1353.5901119834496,-8250.663155003596,-4570.17045272024,1747.2944761577403,676.2303804096422,1943.048677946392,-3125.1028964394013,-10954.769034134712,-9869.086114983807,-12983.96210921438,-17474.074112741568,-7983.508862947162,-2807.6924775776106,-1075.1423082853617,-8587.084318462172,-5024.106878983345
-8880.27642902575,-11676.110719379623,-7712.0881331594355,1846.614636872944,-125.5462044163754,-25860.510374370373,-18055.56447882401,-2173.938249286852,623.7782930072984,-1106.8896243446748,-8650.704434043482,-3175.672731901469,1880.0559796785049,-806.0430225573086,-10767.673191271328,-5046.066484953228,2248.851876509817,1353.0881781327096,-8250.035737690172,-4570.358677914268,1747.608184814453,675.4147379021895,1944.4917377672691,-3124.9774129767166,-10953.765166433232,-9867.454829968903,-12982.770016318873,-17472.81927811472,-7983.634346409846,-2808.194411428351,-1079.910679867393,-8589.719471178556,-5024.420587640059
-8881.154813264544,-11677.679262663187,-7712.2763583534625,1847.806729768452,-126.7382973118832,-25860.635857833055,-18056.944796913547,-2173.436315436112,622.4607166491056,-1108.0189755088404,-8650.202500192741,-3174.543380737304,1879.4913040964225,-807.1096319901313,-10767.735933002672,-5045.125358983089,2247.4715584202813,1352.5235025506267,-8249.345578645403,-4570.6096448396365,1746.9180257696853,674.3481284693667,1944.3662543045843,-3125.855797215512,-10955.270967985452,-9868.584181133068,-12981.891632080076,-17470.246867129674,-7982.19128658897,-2808.006186234323,-1082.1066404643811,-8589.154795596472,-5023.542203401264
-8883.852707712273,-11679.624256334804,-7712.590067010176,1846.2381864848887,-129.93812561035156,-25862.89456016139,-18057.948664615025,-2173.938249286852,620.0137891267474,-1109.3992935983756,-8650.265241924084,-3173.853221692537,1878.4246946636,-808.6154335423519,-10767.9241581967,-5044.748908595035,2245.5265647486635,1351.5196348491463,-8249.22009518272,-4570.986095227693,1745.2239990234373,673.0305521111737,1942.860452752364,-3127.236115305047,-10958.659021477948,-9872.223201550934,-12981.703406886048,-17468.67832384611,-7981.061935424803,-2808.1316696970084,-1083.926150673314,-8587.899960969622,-5023.103011281865
-8887.554469861481,-11680.941832693,-7712.841033935547,1843.7912589625307,-132.82424525210732,-25864.839553833004,-18056.693829988177,-2174.251957943565,618.006053723787,-1109.9639691804584,-8649.575082879317,-3173.3512878417964,1877.734535618832,-809.7447847065171,-10767.986899928042,-5044.309716475636,2244.4599553158405,1351.0804427297487,-8248.96912825735,-4570.546903108295,1744.9102903667247,672.4031347977487,1942.4840023643087,-3127.800790887129,-10960.666756880908,-9874.544645610607,-12981.828890348732,-17467.925423070003,-7980.999193693461,-2808.445378353721,-1084.3653427927115,-8587.711735775596,-5023.103011281865
-8891.75816586143,-11681.569250006423,-7712.590067010176,1843.352066843133,-133.70262949090252,-25864.776812101663,-18053.995935540446,-2173.373573704769,617.7550867984169,-1109.4620353297182,-8648.445731715152,-3171.9082280209186,1877.734535618832,-809.9957516318874,-10767.547707808644,-5043.180365311471,2244.7736639725526,1351.1431844610916,-8248.592677869292,-4569.41755194413,1746.165124993575,672.7168434544612,1942.5467440956515,-3127.0478901110196,-10959.9138561048,-9873.60351964047,-12982.519049393502,-17468.23913172671,-7981.689352738229,-2808.947312204461,-1080.9772893002155,-8588.527378283048,-5022.852044356496
-8894.205093383787,-11681.820216931792,-7711.648941040038,1845.0460935893807,-132.82424525210732,-25863.08278535541,-18052.552875719568,-2171.742288689864,618.6962127685546,-1108.7718762849506,-8647.567347476355,-3169.335817035876,1877.7972773501745,-810.2467185572573,-10767.296740883272,-5041.549080296566,2245.777531674033,1351.2686679237763,-8247.526068436471,-4568.099975585937,1747.608184814453,673.3442607678865,1941.856585050884,-3124.7891877826887,-10957.090478194386,-9870.215466147974,-12983.271950169612,-17469.43122462222,-7982.1285448576255,-2809.7002129805715,-1076.9618184942947,-8589.029312133789,-5022.663819162469
-8891.130748548003,-11680.879090961656,-7710.080397756476,1847.6812463057668,-130.75376811780427,-25860.94956648977,-18052.86658437628,-2169.6090698242188,620.0137891267474,-1108.0189755088404,-8646.500738043533,-3166.3242139314348,1877.6717938874892,-810.4976854826275,-10767.171257420589,-5039.792311818976,2247.095108032226,1351.6451183118315,-8245.76929995888,-4566.656915765059,1748.612052515933,674.0971615439968,1941.7311015881987,-3122.3422602603305,-10954.204358552628,-9866.952896118162,-12982.770016318873,-17469.242999428196,-7980.936451962119,-2809.951179905941,-1074.452149240594,-8587.209801924855,-5022.287368774413
-8885.546734458521,-11678.306679976611,-7708.323629278885,1850.00269036544,-128.68329098350122,-25859.631990131576,-18053.49400168971,-2167.6640761526005,621.1431402909128,-1107.2660747327302,-8645.18316168534,-3163.7518029463918,1877.92276081286,-810.1839768259149,-10766.920290495218,-5038.349251998096,2248.036234002364,1352.0843104312291,-8244.890915720085,-4565.778531526264,1748.612052515933,674.8500623201069,1942.5467440956515,-3121.965809872276,-10953.200490851148,-9866.13725361071,-12980.385830527855,-17466.92155536852,-7979.367908678557,-2808.570861816406,-1073.5110232704562,-8583.759006701017,-5022.036401849044
-8883.225290398848,-11675.420560334856,-7706.817827726664,1851.3202667236324,-126.67555558054067,-25858.879089355465,-18053.49400168971,-2166.3464997944075,622.272491455078,-1106.8268826133326,-8643.865585327148,-3162.246001394172,1878.6129198576273,-809.6193012438323,-10766.669323569848,-5037.1571591025895,2248.6636513157887,1352.5235025506267,-8244.639948794713,-4565.088372481497,1748.361085590563,675.6029630962171,1943.2369031404191,-3123.1579027677835,-10953.388716045176,-9867.14112131219,-12978.189869930868,-17464.725594771535,-7979.3051669472125,-2807.0650602641854,-1075.7069838674445,-8581.56304610403,-5022.726560893811
-8883.538999055558,-11673.287341469211,-7705.43750963713,1852.6378430818252,-123.97766113281249,-25857.24780434056,-18052.427392256886,-2164.338764391447,624.217485126696,-1106.0112401058796,-8642.234300312242,-3160.865683304636,1880.18146314119,-808.1134996916117,-10766.167389719109,-5035.714099281712,2249.855744211297,1353.5901119834496,-8243.636081093233,-4563.770796123304,1749.176728098016,676.4186056036698,1943.362386603104,-3123.6598366185235,-10954.016133358602,-9868.646922864411,-12976.872293572675,-17464.41188611482,-7980.058067723325,-2806.249417756733,-1079.4714877479953,-8581.56304610403,-5023.793170326634
-8884.731091951067,-11671.53057299162,-7703.994449816251,1854.4573532907584,-121.21702495374176,-25854.42442643015,-18050.545140316608,-2161.4526447496914,626.7271543803968,-1104.5054385536591,-8640.289306640625,-3158.7952061703327,1882.7538741262333,-805.2901217811985,-10764.912555092258,-5033.957330804122,2251.7379961515726,1355.7860725804378,-8241.816570884303,-4561.6375772576575,1750.7452713815787,677.8616654245476,1942.9859362150487,-3122.3422602603305,-10954.831775866056,-9869.650790565891,-12975.366492020456,-17465.290270353617,-7979.995325991981,-2805.1200665925676,-1080.9772893002155,-8582.504172074166,-5023.479461669921
-8887.617211592822,-11670.652188752823,-7702.865098652086,1856.0258965743212,-120.21315725226148,-25852.102982370478,-18048.662888376333,-2159.319425884046,628.8603732460423,-1102.874153538754,-8639.097213745117,-3156.5365038420023,1885.3262851112763,-801.9648100200451,-10763.406753540035,-5032.577012714585,2254.122181942588,1358.1702583714534,-8240.248027600739,-4559.44161666067,1752.0001060084292,679.5556921707956,1942.0448102449116,-3120.2090413946853,-10954.831775866056,-9869.525307103204,-12974.174399124948,-17466.796071905836,-7979.054200021843,-2804.116198891087,-1080.3498719867905,-8583.006105924907,-5022.538335699784
-8890.126880846525,-11670.965897409538,-7703.49251596551,1856.5278304250612,-121.3425084164268,-25851.412823325707,-18047.65902067485,-2158.817492033306,629.80149921618,-1101.7448023745887,-8639.6618893272,-3155.218927483809,1887.208537051552,-799.643365960372,-10762.151918913187,-5032.326045789217,2256.3808842709186,1359.9270268490438,-8240.624477988793,-4558.563232421873,1753.1921989039367,681.1869771857009,1941.9193267822263,-3119.7698492752875,-10954.016133358602,-9868.772406327096,-12974.299882587631,-17468.490098652084,-7978.928716559159,-2804.2416823537724,-1079.0322956285977,-8583.06884765625,-5021.910918386358
-8888.119145443565,-11670.77767221551,-7704.998317517731,1856.9670225444593,-122.59734304327712,-25850.97363120631,-18047.03160336143,-2158.6920085706206,630.3034330669202,-1100.8664181357935,-8640.665757028679,-3154.152318050986,1889.2162724545124,-798.2630478708367,-10760.70885909231,-5032.012337132504,2258.514103136564,1361.6210535952919,-8241.691087421617,-4558.124040302477,1755.6391264262948,683.3201960513466,1943.362386603104,-3119.7698492752875,-10952.259364881013,-9866.576445730108,-12974.739074707028,-17468.427356920743,-7978.74049136513,-2804.2416823537724,-1077.8402027330899,-8583.13158938759,-5021.346242804276
-8881.468521921257,-11669.77380451403,-7704.433641935648,1857.9081485145969,-121.90718399850944,-25849.96976350483,-18046.592411242033,-2157.750882600483,631.495525962428,-1099.862550434313,-8639.850114521225,-3152.270066110711,1891.5377165141856,-797.3219219006988,-10759.767733122171,-5030.318310386256,2260.835547196237,1363.4405638042247,-8241.126411839532,-4556.618238750257,1758.9644381874484,685.8298653050472,1945.056413349352,-3117.6366304096414,-10949.624212164626,-9863.502100894324,-12974.550849513,-17466.92155536852,-7976.670014230827,-2803.3632981149767,-1077.7774610017475,-8583.13158938759,-5021.346242804276
-8875.068865324321,-11668.76993681255,-7701.9867144132895,1858.7237910220492,-119.71122340152137,-25849.530571385432,-18046.592411242033,-2156.621531436317,632.8758440519633,-1098.5449740761203,-8637.96786258095,-3150.7642645584906,1893.5454519171465,-797.0082132439862,-10759.704991390829,-5028.059608057924,2262.215865285773,1364.56991496839,-8239.683352018657,-4555.237920660721,1760.8466901277238,687.0846999318975,1945.74657239412,-3115.252444618626,-10948.620344463146,-9862.811941849555,-12973.735207005548,-17465.8549459357,-7974.160344977126,-2802.7986225328946,-1079.659712942023,-8583.006105924907,-5020.781567222193
-8871.931778757194,-11667.577843917043,-7700.041720741674,1859.5394335295025,-117.13881241647817,-25849.27960446006,-18045.90225219726,-2155.68040546618,633.942453484786,-1097.164655986585,-8637.026736610813,-3149.948622051038,1895.6159290514488,-796.8827297813012,-10759.642249659488,-5026.302839580335,2262.843282599198,1365.0718488191303,-8238.867709511203,-4554.673245078639,1761.348623978464,687.1474416632401,1945.9347975881476,-3114.0603517231184,-10949.812437358654,-9864.255001670435,-12971.727471602588,-17465.603979010328,-7973.281960738331,-2802.7986225328946,-1082.9850247031764,-8582.755138999537,-5018.96205701326
-8871.80629529451,-11666.950426603617,-7699.97897901033,1859.790400454872,-115.57026913291529,-25849.21686272872,-18045.086609689806,-2155.0529881527546,634.9463211862663,-1096.0980465537623,-8637.90512084961,-3149.8858803196954,1897.1217306036697,-796.5690211245886,-10760.332408704255,-5025.298971878854,2263.533441643965,1365.1345905504727,-8238.804967779859,-4554.673245078639,1761.6623326351767,686.7082495438425,1945.6838306627772,-3114.0603517231184,-10951.506464104901,-9865.572578028627,-12969.78247793097,-17467.17252229389,-7975.101470947264,-2803.1750729209493,-1085.0555018374791,-8584.386424014441,-5018.648348356548
-8873.437580309414,-11667.577843917043,-7701.045588443154,1859.288466604132,-114.94285181949012,-25849.718796579455,-18045.400318346525,-2154.864762958727,635.636480231034,-1095.345145777652,-8639.536405864514,-3150.3878141704354,1897.9373731111225,-796.0670872738486,-10761.775468525131,-5024.671554565429,2264.2236006887333,1365.0718488191303,-8239.055934705231,-4554.861470272665,1761.6623326351767,686.3945408871299,1944.9309298866672,-3115.754378469366,-10953.075007388465,-9866.38822053608,-12969.845219662311,-17470.81154271176,-7978.426782708418,-2803.8024902343745,-1083.926150673314,-8588.276411357676,-5020.593342028164
-8875.821766100433,-11668.393486424495,-7702.174939607318,1858.7237910220492,-114.31543450606496,-25850.03250523617,-18045.77676873458,-2155.1157298840967,636.4521227384868,-1094.6549867328843,-8639.975597983912,-3150.5132976331206,1898.87849908126,-795.5651534231084,-10762.528369301242,-5023.918653789319,2264.9137597335007,1365.3855574758427,-8239.432385093289,-4555.112437198036,1761.223140515779,687.021958200555,1944.6172212299543,-3119.016948499177,-10954.769034134712,-9867.517571700244,-12972.354888916012,-17474.011371010227,-7981.375644081517,-2804.116198891087,-1081.6674483449835,-8592.417365626285,-5022.601077431126
-8878.143210160104,-11668.707195081208,-7703.178807308798,1857.4689563951993,-114.50365970009248,-25850.47169735557,-18045.58854354055,-2155.868630660208,637.8951825593647,-1094.7177284642269,-8639.473664133171,-3150.1368472450654,1899.4431746633425,-795.0004778410257,-10762.277402375872,-5023.291236475894,2266.356819554379,1366.2011999832955,-8239.683352018657,-4554.986953735352,1760.972173590409,688.5905014841179,1945.1818968120367,-3121.0874256334805,-10955.145484522767,-9868.20773074501,-12975.429233751798,-17474.199596204253,-7983.257896021791,-2804.806357935855,-1081.6047066136407,-8594.738809685958,-5023.855912057977
-8880.27642902575,-11669.334612394632,-7704.433641935648,1855.147512335526,-117.07607068513568,-25852.47943275853,-18045.964993928606,-2157.3116904810854,638.2716329474198,-1096.1607882851047,-8639.2226972078,-3149.8858803196954,1898.5647904245477,-794.6867691843133,-10761.96369371916,-5023.040269550524,2267.737137643914,1366.8286172967207,-8239.934318944026,-4554.485019884611,1761.4113657098067,690.0335613049958,1945.6210889314348,-3121.150167364822,-10953.890649895919,-9868.019505550985,-12977.186002229388,-17471.815410413237,-7983.822571603873,-2805.93570910002,-1082.1066404643811,-8594.676067954615,-5024.797038028114
-8882.597873085422,-11670.714930484168,-7705.625734831156,1852.951551738538,-120.90331629702916,-25854.42442643015,-18047.157086824114,-2159.1939424213606,636.3893810071443,-1098.2312654194077,-8639.410922401827,-3150.3250724390928,1896.5570550215873,-794.9377361096833,-10761.399018137075,-5023.165753013209,2268.1135880319694,1366.9541007594055,-8240.059802406711,-4553.481152183131,1762.2897499486019,690.2845282303659,1945.74657239412,-3120.773716976768,-10952.69855700041,-9867.517571700244,-12978.127128199523,-17469.054774234162,-7982.755962171052,-2806.4376429507606,-1079.9734215987355,-8593.233008133737,-5024.671554565429
-8885.860443115233,-11672.408957230416,-7706.190410413238,1851.3202667236324,-124.54233671489511,-25854.98910201223,-18048.474663182307,-2161.327161287006,632.3739102012232,-1100.3017425537107,-8639.850114521225,-3152.144582648026,1893.8591605738588,-796.129829005191,-10760.395150435595,-5024.044137252004,2266.6705282110916,1366.138458251953,-8240.687219720137,-4553.041960063732,1762.5407168739719,689.3434022602281,1946.24850624486,-3121.150167364822,-10952.133881418327,-9866.952896118162,-12979.570188020403,-17468.11364826403,-7980.999193693461,-2806.249417756733,-1075.4560169420743,-8591.099789268092,-5023.479461669921
-8889.624946995782,-11673.03637454384,-7705.813960025184,1850.3791407534948,-126.92652250591075,-25854.92636028089,-18048.976597033048,-2163.2094132272814,628.2956976639597,-1101.9330275686164,-8640.414790103308,-3154.842477095754,1891.2240078574728,-798.0748226768092,-10759.893216584856,-5025.612680535567,2264.286342420076,1364.3816897743625,-8241.50286222759,-4553.418410451788,1761.7878160978617,688.0258259020353,1946.8759235582847,-3121.275650827508,-10951.694689298927,-9866.262737073395,-12980.197605333828,-17468.67832384611,-7979.179683484528,-2805.747483905993,-1071.5660295988382,-8589.029312133789,-5021.785434923673
-8891.75816586143,-11672.283473767731,-7705.312026174445,1850.1909155594676,-127.0520059685958,-25855.051843743568,-18048.223696256937,-2164.0250557347345,626.0997370669716,-1102.560444882041,-8640.540273565994,-3156.9129542300566,1889.5927228425676,-800.0825580797696,-10761.085309480364,-5027.055740356444,2262.4040904798,1362.499437834087,-8241.000928376849,-4553.794860839843,1760.9094318590664,686.9592164692125,1946.7504400956,-3119.707107543945,-10951.192755448188,-9865.321611103258,-12978.942770706977,-17468.92929077148,-7977.73662366365,-2804.6808744731698,-1070.2484532406454,-8587.272543656196,-5020.781567222193
-8890.126880846525,-11671.593314722963,-7705.876701756528,1850.6301076788648,-125.48346268503288,-25855.491035862968,-18046.466927779347,-2163.962314003392,625.7232866789165,-1102.4349614193563,-8640.477531834651,-3157.603113274825,1888.5261134097448,-801.9648100200451,-10763.218528346011,-5027.620415938527,2261.3374810469777,1361.4955701326069,-8239.683352018657,-4554.045827765212,1760.0937893516136,686.2063156931023,1945.8093141254624,-3118.1385642603823,-10951.44372237356,-9865.321611103258,-12977.123260498043,-17469.18025769685,-7977.422915006938,-2803.237814652292,-1072.0052217182358,-8586.394159417403,-5020.781567222193
-8885.923184846575,-11672.408957230416,-7707.19427811472,1850.6928494102076,-123.85217767012746,-25855.930227982368,-18045.58854354055,-2163.836830540707,625.9115118729441,-1102.4349614193563,-8640.414790103308,-3157.916821931537,1887.459503976922,-803.4706115722654,-10765.038038554943,-5028.059608057924,2260.270871614154,1360.9936362818667,-8238.930451242546,-4555.049695466692,1758.7762129934208,685.5788983796772,1944.9309298866672,-3118.8287233051497,-10952.69855700041,-9867.015637849505,-12977.060518766702,-17471.250734831156,-7979.1169417531855,-2802.6731390702093,-1075.3305334793893,-8586.958834999485,-5021.283501072933
-8881.970455771996,-11673.412824931896,-7708.072662353514,1850.3163990221524,-122.47185958059208,-25855.679261057,-18045.964993928606,-2163.836830540707,626.4761874550267,-1102.6859283447263,-8640.038339715255,-3157.97956366288,1886.8948283948396,-804.0352871543481,-10765.665455868368,-5028.561541908664,2259.141520449989,1360.679927625154,-8238.616742585833,-4556.430013556229,1757.8978287546256,685.1397062602796,1944.6172212299543,-3120.083557932,-10953.70242470189,-9868.835148058439,-12978.880028975636,-17473.3839536968,-7981.563869275542,-2803.112331189607,-1077.4010106136923,-8588.715603477076,-5021.722693192331
-8879.837236906353,-11671.969765111018,-7707.758953696802,1851.1947832609476,-120.40138244628903,-25855.114585474916,-18046.71789470472,-2163.1466714959392,628.0447307385896,-1102.6859283447263,-8640.101081446597,-3157.47762981214,1887.647729170949,-803.0941611842104,-10765.038038554943,-5028.624283640008,2258.702328330592,1360.8681528191817,-8238.930451242546,-4557.245656063682,1757.9605704859682,685.2024479916221,1945.1818968120367,-3120.5227500513975,-10953.95339162726,-9869.462565371863,-12980.0093801398,-17473.509437159482,-7983.132412559107,-2803.5515233090046,-1077.6519775390625,-8591.476239656145,-5021.659951460988
-8881.970455771996,-11669.648321051343,-7707.382503308746,1853.0770352012228,-119.14654781943872,-25856.62038702713,-18047.972729331566,-2162.456512451172,629.2995653654399,-1103.0623787327816,-8641.795108192844,-3157.1639211554275,1888.7143386037724,-801.2746509752776,-10764.222396047491,-5028.93799229672,2258.514103136564,1361.3700866699216,-8239.74609375,-4557.810331645765,1757.9605704859682,685.5161566483347,1946.1857645135171,-3120.2090413946853,-10953.200490851148,-9868.458697670383,-12980.0093801398,-17473.007503308745,-7984.638214111326,-2803.9907154284024,-1077.5264940763773,-8594.864293148643,-5022.161885311729
-8887.805436786852,-11669.711062782688,-7708.386371010227,1853.5162273206208,-119.8367068642064,-25860.008440519632,-18049.917723003186,-2162.6447376451993,629.2368236340974,-1103.6897960462068,-8644.304777446545,-3157.6658550061675,1889.0280472604848,-800.0825580797696,-10763.72046219675,-5029.251700953433,2258.325877942537,1361.7465370579769,-8240.49899452611,-4558.124040302477,1757.9605704859682,685.8926070363897,1947.6915660657376,-3118.5150146484366,-10950.126146015367,-9864.694193789834,-12980.072121871144,-17473.446695428145,-7986.20675739489,-2805.371033517937,-1080.914547568873,-8596.621061626232,-5023.981395520662
-8890.817039891292,-11671.78153991699,-7709.766689099762,1852.0731674997428,-121.46799187911184,-25862.392626310648,-18051.48626628675,-2163.1466714959392,628.6094063206722,-1103.9407629715768,-8645.371386879366,-3157.791338468852,1888.8398220664571,-799.8315911543996,-10763.594978734063,-5029.314442684776,2258.4513614052216,1362.2484709087169,-8241.377378764904,-4557.93581510845,1758.7762129934208,686.6455078124999,1950.2012353194384,-3117.0719548275592,-10946.047933478105,-9860.176789133171,-12980.260347065172,-17474.76427178634,-7985.5793400814655,-2807.127801995528,-1085.1809853001644,-8594.676067954615,-5025.424455341539
-8888.119145443565,-11672.973632812498,-7709.20201351768,1851.0692997982624,-123.03653516267472,-25862.45536804199,-18051.423524555405,-2162.519254182514,628.8603732460423,-1103.376087389494,-8643.489134939091,-3156.5992455733444,1888.8398220664571,-799.8943328857421,-10763.155786614669,-5028.812508834035,2259.078778718647,1363.2523386101973,-8241.942054346988,-4557.371139526366,1760.1565310829562,687.272925125925,1951.9580037970288,-3118.5150146484366,-10945.48325789602,-9859.549371819745,-12979.632929751744,-17473.948629278882,-7981.877577932256,-2807.4415106522406,-1083.9888924046563,-8588.841086939761,-5024.169620714689
-8882.535131354078,-11671.656056454303,-7706.629602532636,1851.9476840370576,-123.47572728207236,-25861.137791683796,-18050.04320646587,-2160.0095849288136,630.4916582609477,-1102.1839944939863,-8640.16382317794,-3154.215059782329,1889.9691732306228,-799.643365960372,-10762.402885838555,-5026.992998625104,2260.4590968081825,1364.444431505705,-8240.812703182823,-4556.179046630858,1761.348623978464,687.3984085886101,1951.2678447522608,-3120.33452485737,-10947.741960224352,-9861.996299342105,-12977.625194348784,-17470.68605924907,-7977.799365394993,-2805.93570910002,-1082.232123927066,-8582.817880730878,-5021.597209729646
-8877.076600727281,-11668.707195081208,-7703.868966353566,1854.8338036788136,-121.84444226716693,-25859.631990131576,-18048.85111357036,-2156.8724983616876,633.0640692459909,-1101.1173850611635,-8637.591412192896,-3151.8308739913127,1892.1651338276108,-799.0786903782893,-10761.71272679379,-5024.295104177374,2262.1531235544303,1365.3228157445003,-8238.930451242546,-4554.673245078639,1761.5368491724917,687.3356668572676,1948.7581754985608,-3119.456140618575,-10949.49872870194,-9863.627584357007,-12974.613591244344,-17468.55284038343,-7976.105338648744,-2803.9907154284024,-1082.6713160464635,-8580.747403596575,-5020.154149908768
-8874.064997622838,-11667.0759100663,-7702.614131726716,1857.5316981265416,-119.77396513286388,-25859.569248400232,-18049.03933876439,-2155.2412133467824,634.3189038728412,-1101.8075441059311,-8636.587544491416,-3151.0152314838606,1893.796418842516,-799.3296573036594,-10761.775468525131,-5023.291236475894,2262.215865285773,1364.6326566997325,-8239.118676436572,-4553.983086033872,1760.7212066650388,686.6455078124999,1945.6838306627772,-3118.891465036492,-10952.259364881013,-9865.823544953997,-12972.103921990643,-17469.933158472963,-7976.670014230827,-2803.5515233090046,-1083.1732498972035,-8583.194331118933,-5020.154149908768
-8874.817898398951,-11668.456228155836,-7703.8062246222225,1857.7199233205688,-119.4602564761513,-25861.45150034051,-18051.04707416735,-2156.056855854235,633.1268109773334,-1104.2544716282891,-8637.403186998867,-3151.8308739913127,1893.482710185804,-800.5217501991674,-10763.532237002722,-5024.608812834087,2260.39635507684,1362.499437834087,-8241.063670108191,-4554.296794690584,1759.529113769531,685.0142227975945,1942.7349692896792,-3120.648233514082,-10956.212093955592,-9869.650790565891,-12972.605855841384,-17473.509437159482,-7978.865974827816,-2804.9945831298824,-1085.1809853001644,-8588.213669626335,-5022.538335699784
-8876.700150339226,-11671.154122603566,-7705.751218293842,1856.5278304250612,-120.02493205823396,-25863.333752280785,-18053.619485152394,-2157.248948749743,631.621009425113,-1106.0112401058796,-8639.097213745117,-3152.3328078420536,1892.4161007529808,-801.211909243935,-10765.853681062395,-5025.738163998252,2259.455229106702,1361.3073449385793,-8242.067537809673,-4554.485019884611,1758.5879877993934,683.6966464394017,1941.0409425434311,-3122.0912933349605,-10958.219829358552,-9872.34868501362,-12974.676332975687,-17474.76427178634,-7981.1246771561455,-2806.8768350701575,-1087.2514624344672,-8590.660597148693,-5026.491064774362
-8876.135474757144,-11672.283473767731,-7706.378635607267,1856.590572156404,-119.4602564761513,-25863.333752280785,-18054.623352853872,-2157.123465287057,631.5582676937705,-1106.0112401058796,-8639.975597983912,-3151.7053905286284,1892.8552928723784,-800.7099753931949,-10766.857548763875,-5025.110746684827,2260.208129882812,1362.2484709087169,-8240.938186645508,-4554.422278153268,1758.5879877993934,683.8221299020867,1941.417392931486,-3121.4011342901927,-10957.466928582442,-9871.909492894221,-12974.488107781657,-17473.007503308745,-7981.814836200913,-2808.006186234323,-1085.9338860762743,-8588.276411357676,-5026.67928996839
-8874.002255891497,-11671.969765111018,-7705.562993099815,1857.3434729325145,-118.6446139686986,-25861.890692459903,-18053.933193809105,-2156.558789704975,631.9974598131681,-1105.7602731805096,-8639.787372789884,-3151.642648797286,1894.1101274992288,-799.8315911543996,-10766.418356644477,-5024.295104177374,2261.086514121608,1363.6287889982523,-8239.369643361944,-4554.485019884611,1759.4663720381886,684.6377724095394,1942.9859362150487,-3119.518882349917,-10955.45919317948,-9869.39982364052,-12972.103921990643,-17471.752668681896,-7981.689352738229,-2808.570861816406,-1082.232123927066,-8585.829483835318,-5022.350110505756
-8874.253222816867,-11672.095248573703,-7703.429774234168,1856.9670225444593,-119.58573993883634,-25860.761341295736,-18053.05480957031,-2156.3705645109476,631.746492887798,-1105.9484983745372,-8639.473664133171,-3152.960225155479,1893.984644036544,-799.3296573036594,-10765.539972405684,-5024.546071102744,2261.274739315635,1364.1307228489925,-8239.306901630602,-4555.112437198036,1760.2820145456412,684.825997603567,1944.6799629612967,-3118.5150146484366,-10953.95339162726,-9867.643055162931,-12970.786345632452,-17471.313476562496,-7981.752094469572,-2808.8845704731184,-1078.216653121145,-8586.205934223375,-5019.463990864
-8878.707885742186,-11672.848149349811,-7701.673005756577,1855.7121879176088,-121.90718399850944,-25860.07118225097,-18052.427392256886,-2156.307822779605,631.0563338430304,-1105.5093062551396,-8639.536405864514,-3153.838609394274,1892.9180346037208,-799.1414321096319,-10764.347879510176,-5024.985263222142,2261.274739315635,1364.1307228489925,-8240.248027600739,-4555.739854511461,1760.4074980083262,685.1397062602796,1946.24850624486,-3119.016948499177,-10953.200490851148,-9867.203863043533,-12971.790213333932,-17469.11751596551,-7981.375644081517,-2808.3826366223784,-1075.0168248226767,-8587.272543656196,-5019.275765669972
-8886.04866830926,-11673.224599737869,-7701.73574748792,1855.2729957982112,-123.47572728207236,-25858.879089355465,-18051.8627166748,-2156.18233931692,630.4916582609477,-1104.2544716282891,-8639.285438939143,-3153.399417274876,1892.2278755589532,-798.8904651842618,-10762.842077957956,-5025.048004953484,2261.2119975842925,1364.6326566997325,-8240.74996145148,-4555.6771127801185,1760.4074980083262,686.3317991557874,1947.3778574090247,-3120.1462996633422,-10952.761298731752,-9866.89015438682,-12972.668597572727,-17463.84721053274,-7979.367908678557,-2806.8768350701575,-1072.8208642256886,-8587.021576730827,-5019.338507401314
-8890.315106040553,-11671.969765111018,-7702.48864826403,1857.1552477384864,-122.40911784924958,-25857.05957914653,-18050.921590704664,-2155.554922003495,631.1190755743729,-1102.4349614193563,-8638.595279894376,-3151.893615722656,1892.7298094096932,-797.823855751439,-10761.587243331103,-5024.734296296771,2261.6511897036903,1365.887491326583,-8240.373511063424,-4554.610503347296,1760.8466901277238,688.2140510960628,1948.0052747224504,-3120.2090413946853,-10951.631947567586,-9865.698061491312,-12972.103921990643,-17458.765130293996,-7976.670014230827,-2804.869099667197,-1071.6915130615234,-8586.268675954716,-5020.0914081774245
-8886.613343891344,-11669.460095857316,-7702.551389995373,1860.0413673802425,-119.20928955078124,-25855.80474451968,-18049.85498127184,-2154.362829107987,633.1895527086759,-1100.615451210423,-8638.156087774978,-3150.4505559017775,1893.6081936484889,-796.0670872738486,-10761.148051211707,-5024.608812834087,2262.592315673828,1366.8286172967207,-8239.74609375,-4553.669377377159,1761.097657053094,689.9708195736533,1948.0680164537928,-3119.518882349917,-10950.000662552682,-9864.255001670435,-12971.53924640856,-17459.76899799547,-7975.540663066662,-2804.304424085115,-1072.6953807630036,-8586.268675954716,-5022.287368774413
-8877.327567652654,-11666.385751021535,-7700.73187978644,1862.9902287533407,-114.94285181949012,-25854.42442643015,-18048.41192145096,-2152.1041267796563,635.8247054250617,-1098.482232344778,-8637.026736610813,-3149.1329795435854,1894.988511738024,-794.3103187962581,-10761.210792943048,-5024.169620714689,2263.6589251066507,1367.5187763414883,-8239.055934705231,-4553.418410451788,1761.4113657098067,691.1001707378185,1947.5660826030528,-3119.393398887232,-10948.93405311986,-9863.564842625665,-12969.719736199628,-17464.537369577505,-7974.536795365182,-2804.2416823537724,-1075.6442421361019,-8585.202066521895,-5023.416719938579
-8869.547592966179,-11663.185922723069,-7697.281084562602,1866.4410239771792,-110.2999637001439,-25851.22459813168,-18046.027735659947,-2148.9670402125307,638.6480833354749,-1095.5333709716795,-8634.45432562577,-3147.689919722707,1897.184472335012,-792.7417755126952,-10761.336276405735,-5023.103011281865,2264.4118258827607,1368.5853857743111,-8237.487391421668,-4553.292926989103,1762.1642664859169,691.6021045885587,1947.7543077970804,-3119.33065715589,-10948.808569657174,-9863.000167043585,-12965.892490587736,-17466.168654592413,-7972.1526095741665,-2802.8613642642367,-1078.2793948524875,-8582.441430342822,-5022.224627043072
-8866.598731593082,-11661.55463770816,-7694.583190114874,1868.6997263055096,-107.2256188643606,-25847.33461078844,-18044.082741988328,-2147.2102717349403,640.7185604697779,-1093.0237017179788,-8632.572073685495,-3146.99976067794,1898.4393069618625,-791.8633912739,-10761.587243331103,-5022.977527819181,2264.4118258827607,1369.0873196250511,-8235.856106406764,-4553.481152183131,1762.1642664859169,691.3511376631886,1948.3817251105056,-3119.016948499177,-10949.059536582545,-9862.498233192844,-12963.320079602692,-17464.85107823422,-7970.458582827919,-2801.7320131000715,-1078.467620046515,-8580.370953208521,-5020.4051168341375
-8866.84969851845,-11661.30367078279,-7693.893031070105,1868.8879514995367,-105.97078423751029,-25844.323007684,-18043.141616018194,-2146.896563078228,641.8479116339432,-1091.5179001657584,-8632.070139834754,-3147.1252441406245,1898.5647904245477,-791.2987156918174,-10761.02256774902,-5023.479461669921,2263.972633763364,1369.3382865504211,-8235.354172556023,-4553.983086033872,1761.4113657098067,690.6609786184209,1948.0680164537928,-3119.205173693205,-10950.314371209395,-9863.564842625665,-12962.943629214637,-17462.278667249175,-7970.082132439864,-2801.418304443359,-1077.0245602256373,-8579.743535895095,-5018.836573550575
-8867.539857563219,-11661.30367078279,-7694.708673577558,1868.1977924547691,-105.7198173121402,-25842.378014012385,-18043.078874286846,-2146.7710796155425,642.7262958727384,-1090.6395159269632,-8631.819172909385,-3147.3762110659945,1899.066724275288,-790.4203314530221,-10760.01870004754,-5022.977527819181,2264.0353754947055,1369.8402204011616,-8235.54239775005,-4553.857602571185,1761.0349153217514,690.0963030363383,1946.7504400956,-3119.7698492752875,-10952.94952392578,-9866.13725361071,-12963.382821334035,-17460.14544838353,-7970.395841096576,-2800.665403667249,-1075.8324673301295,-8579.994502820466,-5017.142546804327
-8867.539857563219,-11661.931088096217,-7696.8418924432035,1866.817474365234,-107.28836059570312,-25841.938821892985,-18044.710159301758,-2147.398496928968,642.6635541413959,-1091.0787080463608,-8632.383848491465,-3148.129111842105,1899.7568833200553,-790.3575897216796,-10760.269666972912,-5022.036401849044,2264.3490841514185,1369.589253475791,-8236.420781988845,-4553.1674435264185,1761.2858822471214,689.5316274542557,1945.6210889314348,-3120.4600083200553,-10954.769034134712,-9868.270472476355,-12964.449430766856,-17461.274799547697,-7971.838900917454,-2800.226211547851,-1075.6442421361019,-8581.939496492083,-5016.515129490902
-8868.669208727384,-11663.436889648436,-7699.351561696905,1864.872480693616,-110.11173850611635,-25843.444623445208,-18047.2825702868,-2148.7160732871607,641.9733950966281,-1092.6472513299238,-8634.2033587004,-3148.944754349557,1900.196075439453,-791.2359739604749,-10761.524501599763,-5021.471726266961,2264.9765014648433,1368.3971605802835,-8238.114808735094,-4551.975350630912,1761.2858822471214,688.966951872173,1945.24463854338,-3121.0246839021374,-10954.392583746656,-9868.521439401724,-12966.645391363843,-17464.725594771535,-7974.662278827867,-2801.2300792493315,-1076.648109837582,-8585.390291715923,-5018.271897968492
-8872.998388190017,-11665.632850245423,-7701.798489219263,1862.7392618279707,-113.43705026726973,-25847.020902131728,-18049.85498127184,-2149.7199409886407,641.220494320518,-1095.219662314967,-8636.336577566044,-3149.25846300627,1900.3215589021377,-793.1182259007502,-10762.96756142064,-5021.158017610248,2265.666660509611,1367.0795842220907,-8238.554000854492,-4550.783257735402,1760.2820145456412,687.8376007080077,1944.6799629612967,-3120.648233514082,-10953.388716045176,-9867.894022088301,-12969.46876927426,-17468.23913172671,-7977.360173275595,-2803.5515233090046,-1077.7147192704049,-8587.962702700963,-5022.036401849044
-8876.009991294457,-11666.385751021535,-7703.241549040141,1861.798135857833,-115.69575259560033,-25851.161856400337,-18050.984332436008,-2149.5317157946133,640.7185604697779,-1097.4783646432975,-8636.838511416785,-3148.5683039615024,1900.823492752878,-795.0004778410257,-10763.97142912212,-5020.342375102796,2265.980369166324,1366.2011999832955,-8236.797232376899,-4549.96761522795,1759.3408885755034,686.4572826184724,1943.2369031404191,-3119.456140618575,-10953.576941239204,-9867.329346506218,-12969.719736199628,-17469.744933278937,-7977.360173275595,-2804.7436162045124,-1077.0245602256373,-8587.084318462172,-5024.232362446032
-8874.504189742238,-11664.754466006629,-7702.990582114771,1862.7392618279707,-115.57026913291529,-25853.734267385375,-18050.04320646587,-2148.276881167763,640.9067856638054,-1098.2312654194077,-8636.085610640675,-3146.8742772152546,1901.701876991673,-795.8161203484785,-10764.849813360916,-5019.024798744603,2266.105852629009,1366.012974789268,-8234.977722167969,-4549.402939645867,1759.7173389635586,685.9553487677323,1941.6056181255135,-3118.07582252904,-10953.95339162726,-9866.764670924136,-12967.0218417519,-17468.741065577455,-7974.850504021894,-2804.4299075478,-1075.7697255987869,-8584.072715357732,-5022.789302625154
-8872.55919607062,-11663.248664454408,-7702.363164801345,1863.7431295294507,-114.50365970009248,-25854.48716816149,-18049.29030568976,-2147.6494638543377,641.5969447085731,-1098.2940071507503,-8635.520935058594,-3145.9331512451167,1902.0783273797283,-796.0670872738486,-10766.543840107164,-5018.146414505807,2266.482303017064,1365.9502330579255,-8234.2875631232,-4549.026489257812,1761.348623978464,686.2690574244448,1940.915459080746,-3116.319054051449,-10953.012265657122,-9865.886286685341,-12965.265073274308,-17467.862681338658,-7973.219219006989,-2804.806357935855,-1076.8363350316097,-8582.378688611481,-5020.2168916401115
-8872.81016299599,-11663.31140618575,-7702.112197875975,1864.1195799175057,-113.62527546129728,-25854.110717773438,-18049.415789152445,-2148.0886559737355,641.7851699026007,-1098.5449740761203,-8635.520935058594,-3146.4350850958567,1901.764618723016,-796.0670872738486,-10768.426092047437,-5018.20915623715,2266.733269942434,1365.5737826698703,-8234.977722167969,-4549.026489257812,1763.168134187397,686.770991275185,1941.4801346628287,-3116.5072792454766,-10952.44759007504,-9865.949028416682,-12966.206199244447,-17469.054774234162,-7973.846636320414,-2805.68474217465,-1079.3460042853103,-8583.257072850276,-5019.840441252056
-8874.378706279553,-11664.252532155888,-7702.174939607318,1864.6842554995883,-112.9978581478721,-25853.35781699733,-18049.353047421104,-2148.841556749845,641.0950108578329,-1098.9214244641755,-8635.771901983962,-3147.5644362600224,1900.948976215563,-795.6906368857934,-10769.743668405632,-5018.71109008789,2266.733269942434,1365.3228157445003,-8236.04433160079,-4548.901005795127,1763.9837766948497,687.4611503199526,1942.7349692896792,-3118.5150146484366,-10952.635815269068,-9866.639187461453,-12968.46490157278,-17472.63105292069,-7975.101470947264,-2806.500384682103,-1081.479223150956,-8585.139324790553,-5021.973660117701
-8875.382573981033,-11664.942691200657,-7702.174939607318,1864.3078051115333,-112.87237468518708,-25853.23233353464,-18048.85111357036,-2149.9709079140102,639.5264675742701,-1099.5488417776007,-8636.587544491416,-3149.1329795435854,1899.3176912006577,-795.4396699604233,-10770.622052644427,-5019.652216058028,2266.419561285721,1365.636524401213,-8235.981589869449,-4548.524555407072,1763.8582932321647,688.3395345587479,1944.3035125732415,-3118.57775637978,-10951.820172761614,-9866.262737073395,-12969.970703124998,-17475.454430831105,-7975.477921335319,-2807.1905437268706,-1083.1732498972035,-8585.515775178606,-5024.420587640059
