Fp1,Fp2,F7,F3,Fz,F4,F8,FC3,FCz,FC4,T7,C3,Cz,C4,T8,CP3,CPz,CP4,P7,P3,Pz,P4,P8,O1,Oz,O2,VPVA,VNVB,HPHL,HNHR,Erbs,OrbOcc,Mass
-8330.345153808594,-11057.100797954356,-7485.088549162211,1947.8170495284232,23.151698865388568,-25597.68526177657,-17842.054367065426,-2253.1810559724504,712.4323593942742,-1012.2123517488176,-8401.117826762951,-3251.464743363229,1947.0641487523128,-753.2772264982525,-10847.543415270353,-5178.890730205335,2315.6090786582545,1349.762866371556,-8262.270375301963,-4444.247797915808,1773.4577781275696,752.1478753340871,2005.476700632196,-3062.925840678968,-11071.594137894477,-9992.499100534538,-12531.092292384095,-17342.881152504367,-7696.465442055149,-2799.8497611597963,-1233.251471268503,-8422.951949270147,-5013.942718505858
-8333.544982107062,-11060.363367984168,-7485.653224744293,1946.1230227821748,20.140095760947776,-25599.755738910877,-17846.8854803788,-2254.435890599301,710.236398797286,-1015.161213121916,-8402.56088658383,-3251.966677213969,1945.6210889314348,-754.6575445877877,-10848.23357431512,-5179.76911444413,2314.5424692254314,1348.445290013363,-8262.270375301963,-4444.8752152292345,1772.516652157432,751.8341666773744,2006.0413762142784,-3063.114065872995,-11071.468654431792,-9992.31087534051,-12535.358730115388,-17348.653391787877,-7701.108330174495,-2801.7320131000715,-1230.5535768207749,-8429.916281449166,-5018.146414505807
-8337.184002524926,-11063.939646670691,-7487.974668803967,1943.4251283344468,15.49720764160156,-25602.830083746652,-17849.395149632503,-2256.7573346589734,706.5973783794202,-1017.5453989129315,-8405.57248968827,-3253.9744126169303,1943.6760952598167,-756.4770547967206,-10848.672766434518,-5181.400399459035,2312.534733822471,1346.437554610403,-8264.278110704923,-4446.50650024414,1770.8853671425263,750.3911068564967,2003.4689652292348,-3064.870834350585,-11074.166548879522,-9995.134253250924,-12538.621300145196,-17347.775007549084,-7704.057191547595,-2804.1789406224298,-1227.291006790964,-8433.869010523746,-5017.268030267012
-8338.062386763722,-11064.692547446803,-7489.919662475586,1941.856585050884,13.05028011924342,-25604.210401836197,-17847.073705572828,-2257.9494275544816,704.7151264391447,-1017.5453989129315,-8407.893933747942,-3255.542955900493,1942.7349692896792,-757.2299555728309,-10847.982607389747,-5182.153300235145,2311.0289322702506,1345.5591703716075,-8267.101488615337,-4448.326010453073,1770.1324663664163,748.9480470356187,2000.0181700053963,-3066.815828022204,-11076.864443327247,-9998.145856355362,-12536.550823010895,-17340.998900564093,-7701.610264025235,-2804.4299075478,-1226.0989138954562,-8432.488692434212,-5013.566268117804
-8336.49384348016,-11062.433845118472,-7490.735304983038,1941.6683598568563,13.489472238641037,-25603.959434910823,-17841.55243321469,-2257.8239440917964,705.2798020212273,-1015.8513721666836,-8408.835059718082,-3256.0448897512333,1942.6722275583363,-756.9162469161182,-10846.414064106188,-5182.02781677246,2310.589740150853,1346.2493294163753,-8268.607290167554,-4449.455361617239,1770.571658485814,748.3206297221936,1999.5162361546563,-3067.945179186369,-11077.178151983962,-9999.086982325503,-12530.402133339328,-17334.661985698498,-7695.587057816355,-2802.5476556075246,-1229.7379343133223,-8426.967420076067,-5009.98998943128
-8333.921432495117,-11059.610467208058,-7489.731437281557,1942.9231944837063,16.124624955026725,-25602.579116821285,-17836.784061632658,-2256.882818121659,707.1620539615028,-1013.5926698383532,-8408.08215894197,-3255.417472437808,1943.6760952598167,-755.9123792146381,-10844.78277909128,-5180.647498682924,2311.7190913150184,1348.1315813566507,-8267.101488615337,-4448.514235647101,1772.0774600380344,749.0735304983036,2001.7121967516443,-3067.192278410259,-11075.044933118315,-9997.51843904194,-12524.316185399104,-17334.097310116416,-7690.50497757761,-2800.7281453985916,-1235.3846901341487,-8421.885339837325,-5007.856770565635
-8331.850955360813,-11058.104665655836,-7488.476602654707,1944.6172212299543,19.198969790810033,-25601.32428219444,-17835.34100181178,-2256.067175614206,709.0443059017783,-1011.7104178980776,-8407.015549509148,-3254.413604736328,1945.24463854338,-754.4693193937602,-10843.967136583828,-5178.890730205335,2313.789568449321,1349.8883498342411,-8263.96440204821,-4446.192791587428,1773.3322946648848,750.6420737818665,2003.9081573486324,-3064.682609156558,-11071.907846551192,-9994.56957766884,-12521.24184056332,-17338.05003919099,-7688.685467368677,-2800.2889532791937,-1238.2708097759044,-8421.069697329873,-5008.170479222347
-8330.909829390675,-11057.853698730465,-7488.351119192022,1945.8720558568048,21.018479999743008,-25600.94783180638,-17836.909545095343,-2255.6279834948086,710.1109153346009,-1010.7065501965972,-8407.203774703174,-3254.099896079615,1946.6876983642571,-753.3399682295949,-10844.2181035092,-5178.451538085937,2315.2326282701993,1350.3902836849811,-8262.270375301963,-4444.49876484118,1773.269552933542,751.7086832146895,2004.34734946803,-3063.23954933568,-11071.15494577508,-9993.502968236018,-12520.73990671258,-17342.755669041682,-7689.25014295076,-2801.167337517989,-1238.710001895302,-8424.081300434313,-5009.73902250591
-8329.78047822651,-11058.292890849863,-7488.100152266653,1947.3778574090247,22.461539820620885,-25600.508639686985,-17839.481956080384,-2254.4986323306434,711.2402664987663,-1009.828165957802,-8407.580225091231,-3253.7234456915603,1948.193499916478,-752.1478753340871,-10845.033746016652,-5178.827988473992,2316.424721165707,1350.641250610351,-8262.082150107934,-4443.745864065068,1773.3322946648848,752.3361005281146,2004.2218660053447,-3063.1768076043377,-11072.033330013875,-9994.130385549443,-12520.865390175264,-17346.45743119089,-7690.316752383583,-2802.6103973388667,-1238.5845184326167,-8427.155645270095,-5010.6174067447055
-8328.77661052503,-11059.17127508866,-7486.908059371144,1948.6954337672184,23.653632716128698,-25600.006705836244,-17841.928883602744,-2252.867347315738,712.8088097823293,-1009.5144573010896,-8407.329258165859,-3252.8450614527646,1949.3855928119856,-751.4577162893194,-10846.79051449424,-5178.577021548622,2317.554072329872,1351.3941513864615,-8261.266507600481,-4443.118446751644,1774.0851954409948,752.9635178415399,2004.6610581247428,-3062.110198171515,-11071.343170969109,-9993.377484773333,-12521.49280748869,-17347.775007549084,-7692.51271298057,-2804.2416823537724,-1238.1453263132191,-8427.845804314864,-5011.307565789472
-8328.839352256371,-11059.6732089394,-7485.025807430868,1949.1973676179584,23.96734137284128,-25599.25380506013,-17844.12484419973,-2252.0517048082847,713.6871940211245,-1010.3300998085422,-8406.513615658409,-3252.3431276020247,1949.3855928119856,-751.8341666773744,-10849.174700285255,-5178.075087697882,2317.052138479132,1351.5196348491463,-8261.015540675113,-4443.181188482987,1774.5871292917348,753.2144847669099,2005.2257337068252,-3062.2984233655425,-11071.092204043738,-9992.875550922594,-12523.061350772252,-17345.20259656404,-7695.712541279038,-2804.053457159745,-1238.8982270893296,-8426.590969688014,-5012.499658684981
-8328.588385331002,-11058.41837431255,-7482.390654714483,1949.8247849313836,23.779116178813727,-25596.74413580643,-17844.87774497584,-2251.2988040321748,714.0009026778371,-1010.6438084652548,-8404.694105449473,-3251.7157102885994,1949.5738180060132,-752.1478753340871,-10849.990342792713,-5177.635895578484,2315.7345621209392,1351.0804427297487,-8262.584083958674,-4443.871347527755,1774.71261275442,753.0262595728823,2005.7276675575656,-3065.435509932668,-11072.848972521328,-9994.444094206157,-12523.500542891652,-17339.93229113127,-7696.716408980518,-2799.9752446224807,-1239.9648365221524,-8424.144042165655,-5013.127075998406
-8327.52177589818,-11056.096930252876,-7480.0692106548095,1950.7659109015208,23.151698865388568,-25593.858016164675,-17844.12484419973,-2250.232194599352,714.1263861405221,-1010.2046163458572,-8402.749111777857,-3250.398133930407,1950.389460513466,-751.8341666773744,-10848.798249897203,-5176.882994802374,2315.358111732884,1351.1431844610916,-8263.776176854182,-4443.99683099044,1774.7753544857624,753.0262595728823,2004.9747667814556,-3067.8824374550263,-11074.292032342208,-9995.949895758376,-12522.120224802116,-17336.293270713402,-7694.771415308901,-2795.5833234285046,-1237.4551672684515,-8422.073565031353,-5012.499658684981
-8327.208067241465,-11054.528386969312,-7479.253568147356,1951.330586483604,22.02234770122327,-25592.47769807514,-17842.305333990796,-2249.5420355545843,713.7499357524671,-1009.5144573010896,-8401.431535419664,-3248.5786237214734,1950.8913943642065,-750.8302989758943,-10847.104223150955,-5175.565418444181,2316.1737542403366,1352.0215686998868,-8262.835050884047,-4442.867479826275,1775.3400300678452,753.5281934236226,2003.1552565725224,-3066.627602828176,-11073.162681178042,-9994.883286325552,-12520.928131906609,-17336.042303788032,-7692.387229517884,-2795.2696147717925,-1232.373087029708,-8419.940346165706,-5010.178214625308
-8328.086451480262,-11053.71274446186,-7480.57114450555,1951.0796195582336,21.018479999743008,-25592.4149563438,-17839.85840646844,-2250.3576780620374,712.7460680509868,-1009.577199032432,-8401.745244076377,-3247.637497751336,1950.389460513466,-750.328365125154,-10846.100355449475,-5174.938001130756,2316.6756880910766,1352.5235025506267,-8261.203765869139,-4442.365545975534,1775.7792221872428,753.4027099609373,2001.900421945672,-3063.866966649105,-11071.217687506423,-9992.373617071853,-12521.116357100636,-17337.297138414884,-7691.571587010433,-2798.2184761448907,-1229.1732587312397,-8417.054226523951,-5007.856770565635
-8329.27854437577,-11053.022585417091,-7483.269038953278,1950.0130101254113,20.767513074372943,-25593.23059885125,-17837.725187602795,-2252.0517048082847,711.679458618164,-1010.3300998085422,-8403.502012553967,-3248.3903985274455,1949.0718841552728,-750.8930407072367,-10846.163097180815,-5176.004610563579,2316.048270777652,1352.0215686998868,-8260.513606824372,-4443.3694136770155,1774.9635796797902,751.9596501400595,2001.2102629009044,-3062.5493902909125,-11070.65301192434,-9991.369749370371,-12522.371191727487,-17338.740198235762,-7691.50884527909,-2801.481046174701,-1230.17712643272,-8416.928743061266,-5007.22935325221
-8329.404027838455,-11052.395168103669,-7484.523873580128,1949.5738180060132,22.02234770122327,-25594.799142134816,-17836.909545095343,-2252.365413464998,712.3068759315892,-1010.4555832712272,-8403.815721210678,-3248.8923323781864,1948.8836589612456,-751.0812659012641,-10846.602289300215,-5176.820253071032,2316.1737542403366,1351.8333435058591,-8260.639090287057,-4443.934089259097,1774.3989040977071,751.2694910952919,2000.896554244192,-3062.8630989476246,-11071.029462312395,-9992.185391877823,-12523.751509817022,-17340.057774593955,-7690.128527189555,-2803.1750729209493,-1234.318080701326,-8420.003087897048,-5008.044995759662
-8328.27467667429,-11052.395168103669,-7483.143555490596,1950.828652632864,24.72024214895148,-25596.179460224346,-17837.66244587145,-2250.483161524722,715.443962498715,-1009.0125234503492,-8401.368793688322,-3247.637497751336,1951.330586483604,-749.826431274414,-10846.665031031558,-5175.314451518811,2318.683423494037,1353.150919864052,-8259.886189510948,-4442.5537711695615,1775.6537387245576,753.1517430355675,2002.151388871042,-3062.2356816342,-11070.1510780736,-9992.12265014648,-12524.818119249843,-17340.559708444693,-7688.434500443307,-2802.6103973388667,-1238.459034969932,-8422.01082330001,-5009.927247699938
-8326.517908196702,-11052.64613502904,-7480.633886236895,1953.2128384238792,28.2337791041324,-25595.86575156764,-17838.038896259506,-2247.4715584202813,719.5849167673209,-1006.3773707339636,-8397.855256733139,-3245.127828497635,1955.4715407522096,-747.1285368266857,-10845.47293813605,-5172.240106683028,2322.6988942999587,1356.1625229684928,-8257.000069869191,-4439.353942871093,1778.602600097656,756.9162469161182,2005.539442363538,-3059.0985950670743,-11067.202216700503,-9989.738464355467,-12525.821986951323,-17339.6813242059,-7688.183533517936,-2800.7908871299337,-1240.4667703728924,-8420.442280016447,-5010.680148476048
-8325.200331838505,-11052.583393297697,-7478.81437602796,1955.22057382684,31.05715701454564,-25594.046241358705,-17836.909545095343,-2244.6481805098683,722.5965198717618,-1003.9304432116056,-8395.910263061523,-3243.057351363332,1958.7968525133635,-744.4933841103002,-10843.904394852487,-5169.855920892012,2325.898722598427,1359.1113843415912,-8254.427658884148,-4436.02863110994,1781.6769449334395,760.1160752145865,2007.672661229184,-3056.0869919626334,-11064.943514372171,-9987.856212415192,-12527.014079846833,-17339.367615549185,-7690.065785458211,-2800.2889532791937,-1240.8432207609476,-8418.371802882144,-5009.550797311882
-8325.576782226562,-11053.461777536491,-7479.316309878701,1955.0950903641549,31.308123939915703,-25592.665923269167,-17836.4076112446,-2244.2717301218127,722.8474867971319,-1003.616734554893,-8397.478806345085,-3243.1828348260174,1959.2360446327607,-743.9287085282173,-10844.845520822624,-5169.918662623354,2326.2124312551396,1359.4250929983036,-8254.992334466231,-4435.338472065172,1782.6808126349197,760.4297838712992,2005.7276675575656,-3056.275217156661,-11065.88464034231,-9988.922821848015,-12528.331656205024,-17342.1909934596,-7694.0185145327905,-2802.3594304134967,-1239.0864522833572,-8419.940346165706,-5009.6135390432255
-8327.27080897281,-11055.093062551396,-7481.261303550318,1953.4638053492492,29.67683892501028,-25591.473830373656,-17837.035028558028,-2245.840273405376,721.3416852449116,-1004.7460857190584,-8400.051217330129,-3244.3749277215247,1957.8557265432253,-745.0580596923827,-10847.104223150955,-5170.79704686215,2324.7693714342618,1357.9192914460834,-8256.623619481134,-4436.53056496068,1781.9906535901519,758.9239823190787,2002.2141306023843,-3057.9692439029086,-11068.331567864669,-9990.867815519632,-12528.645364861735,-17345.516305220754,-7696.8418924432035,-2804.4926492791424,-1234.318080701326,-8423.642108314914,-5011.621274446185
-8330.470637271277,-11057.226281417043,-7483.7082310726755,1951.5815534089736,27.22991140265213,-25591.097379985607,-17838.41534664756,-2247.722525345652,719.2712081106084,-1006.0009203459086,-8401.368793688322,-3245.316053691663,1956.1616997969777,-746.7520864386307,-10848.860991628544,-5171.110755518863,2322.9498612253287,1356.664456819233,-8257.564745451273,-4437.848141318873,1780.7358189633017,757.3554390355158,2000.2691369307663,-3059.6005289178142,-11070.527528461656,-9991.9971666838,-12529.523749100532,-17346.080980802835,-7698.033985338712,-2804.9945831298824,-1228.5458414178145,-8426.841936613384,-5013.942718505858
-8333.98417422646,-11058.857566431949,-7485.966933401008,1949.887526662726,24.845725611636514,-25592.54043980648,-17839.732923005755,-2248.7891347784744,717.4516979016755,-1006.6283376593336,-8401.996211001748,-3246.1316961991156,1955.3460572895249,-748.1951462595085,-10849.425667210628,-5171.236238981548,2321.8205100611635,1356.538973356548,-8258.192162764697,-4438.914750751696,1779.4809843364512,756.6652799907483,2000.7083290501644,-3060.416171425267,-11071.970588282535,-9992.436358803197,-12531.531484503492,-17342.44196038497,-7699.288819965562,-2804.053457159745,-1227.5419737163343,-8427.53209565815,-5014.946586207339
-8335.364492315994,-11058.732082969264,-7486.406125520403,1949.4483345433284,24.030083104183795,-25594.799142134816,-17839.85840646844,-2248.6636513157887,716.9497640509354,-1005.687211689196,-8402.058952733089,-3246.6336300498556,1955.5342824835525,-748.3833714535361,-10848.73550816586,-5171.487205906918,2322.008735255191,1357.2918741326582,-8258.44312969007,-4439.416684602435,1779.1672756797386,757.0417303788033,2002.59058099044,-3059.976979305869,-11072.15881347656,-9992.185391877823,-12532.096160085575,-17337.67358880294,-7700.229945935699,-2802.233946950812,-1232.4358287610503,-8427.28112873278,-5014.319168893913
-8334.0469159578,-11057.226281417043,-7484.461131848787,1951.0168778268912,25.661368119089225,-25596.179460224346,-17839.795664737096,-2247.4715584202813,717.7026648270455,-1004.1814101369756,-8401.243310225635,-3246.257179661801,1955.97347460295,-747.6932124087683,-10847.606157001695,-5171.487205906918,2322.636152568616,1357.9820331774258,-8257.627487182617,-4438.852009020353,1779.4182426051088,757.731889423571,2004.284607736688,-3059.349561992444,-11071.468654431792,-9991.683458027086,-12530.904067190068,-17338.614714773077,-7700.229945935699,-2800.979112323961,-1237.3924255371091,-8427.97128777755,-5013.691751580489
-8332.415630942896,-11056.285155446903,-7482.453396445826,1953.1500966925369,27.920070447419818,-25596.86961926912,-17841.050499363948,-2246.593174181486,718.1418569464432,-1004.1186684056332,-8400.176700792812,-3246.0062127364304,1955.7852494089225,-747.8814376027958,-10847.794382195723,-5171.487205906918,2322.3224439119035,1357.1663906699732,-8256.309910824424,-4438.350075169613,1778.602600097656,757.2299555728309,2004.6610581247428,-3059.2868202611016,-11070.778495387027,-9991.683458027086,-12529.837457757243,-17345.139854832694,-7699.665270353617,-2801.418304443359,-1239.9648365221524,-8428.347738165603,-5014.381910625257
-8330.345153808594,-11054.904837357368,-7481.512270475687,1955.1578320954968,29.739580656352793,-25596.618652343743,-17841.677916677374,-2246.216723793431,718.2673404091281,-1005.0597943757708,-8399.361058285362,-3245.817987542403,1955.4715407522096,-748.7598218415912,-10848.672766434518,-5171.424464175575,2321.3813179417657,1356.0370395058076,-8255.431526585628,-4438.161849975585,1777.2222820081206,756.037862677323,2004.09638254266,-3058.9731116043886,-11070.402044998971,-9991.934424952457,-12526.888596384148,-17350.41016026547,-7698.033985338712,-2801.8574965627568,-1241.3451546116878,-8427.406612195466,-5014.632877550625
-8327.01984204744,-11052.144201178298,-7481.386787013002,1956.7263753790603,31.119898745888158,-25595.363817716898,-17840.297598587837,-2246.091240330746,718.5810490658408,-1005.7499534205384,-8399.298316554019,-3246.068954467773,1954.844123438785,-749.1990139609889,-10849.300183747942,-5172.051881489,2320.1264833149153,1355.0331718043276,-8256.309910824424,-4438.28733343827,1775.5909969932152,754.6575445877877,2002.7160644531248,-3059.663270649157,-11071.65687962582,-9993.377484773333,-12521.053615369292,-17354.864823190786,-7695.0223822342705,-2801.8574965627568,-1241.7216049997428,-8426.465486225328,-5014.256427162572
-8325.074848375822,-11049.822757118623,-7481.57501220703,1956.9773423044303,31.93554125334087,-25593.356082313938,-17838.227121453536,-2246.1539820620887,718.9574994538959,-1005.687211689196,-8400.051217330129,-3246.884596975226,1954.1539643940168,-748.257887990851,-10848.798249897203,-5173.557683041221,2318.8089069567222,1354.34301275956,-8258.568613152753,-4439.2284594084085,1774.3989040977071,754.0301272743627,2002.7160644531248,-3062.2984233655425,-11074.10380714818,-9995.259736713608,-12517.791045339483,-17358.62932707134,-7691.697070473118,-2801.3555627120168,-1241.7216049997428,-8425.210651598476,-5013.817235043174
-8326.204199539987,-11050.261949238024,-7481.386787013002,1956.47540845369,32.31199164139597,-25591.473830373656,-17836.15664431923,-2245.589306480006,719.961367155376,-1004.4323770623456,-8400.364925986842,-3246.8218552438834,1954.7186399761,-745.8737021998354,-10846.665031031558,-5173.934133429276,2318.9343904194075,1355.09591353567,-8260.199898167657,-4439.667651527806,1775.2772883365024,755.2222201698704,2005.6021840948808,-3064.431642231188,-11074.10380714818,-9994.506835937498,-12521.116357100636,-17353.798213757964,-7689.877560264185,-2799.5987942344254,-1242.4117640445106,-8421.948081568667,-5012.750625610352
-8328.211934942945,-11052.897101954408,-7480.194694117495,1956.6008919163755,32.500216835423515,-25590.72092959755,-17834.713584498353,-2244.0835049277857,721.7808773643092,-1002.8638337787828,-8399.047349628649,-3244.8768615722647,1956.8518588417448,-743.3012912147923,-10843.904394852487,-5171.926398026314,2321.4440596731083,1357.7310662520558,-8259.007805272151,-4437.848141318873,1778.602600097656,757.9828563489411,2008.9902375873764,-3062.925840678968,-11070.1510780736,-9991.056040713662,-12526.763112921462,-17340.308741519322,-7690.065785458211,-2798.7831517269733,-1243.8548238653884,-8419.50115404631,-5011.495790983501
-8329.592253032482,-11055.344029476766,-7479.253568147356,1956.6636336477177,31.559090865285768,-25590.97189652292,-17834.83906796104,-2243.0168954949622,723.0357119911594,-1002.1109330026724,-8397.792515001798,-3242.9946096319895,1958.8595942447057,-742.046456587942,-10841.081016942073,-5169.79317916067,2324.518404508892,1360.6171858938114,-8256.43539428711,-4435.840405915912,1781.8651701274669,760.3043004086143,2009.8058800948288,-3060.1024627685542,-11066.700282849763,-9988.54637145996,-12530.71584199604,-17329.830872385122,-7691.634328741774,-2800.226211547851,-1245.1096584922389,-8423.579366583572,-5011.119340595445
-8330.470637271277,-11055.65773813348,-7479.190826416015,1956.098958065635,29.92780585038034,-25591.22286344829,-17835.278260080435,-2243.079637226305,723.1611954538445,-1001.9227078086448,-8398.231707121196,-3243.1200930946748,1959.9262036775283,-741.8582313939143,-10837.630221718235,-5169.416728772615,2326.275172986482,1362.3112126400595,-8255.745235242339,-4435.840405915912,1782.6808126349197,761.1826846474095,2007.8608864232112,-3059.7887541118416,-11067.6414088199,-9989.424755698756,-12532.347127010944,-17330.207322773178,-7693.893031070105,-2800.539920204564,-1244.2312742534436,-8431.924016852126,-5010.49192328202
-8330.470637271277,-11054.277420043943,-7478.81437602796,1955.97347460295,29.551355462325244,-25591.285605179637,-17835.466485274465,-2243.2051206889905,723.098453722502,-1001.6089991519324,-8399.110091359991,-3243.8729938707847,1960.6163627222963,-742.046456587942,-10835.998936703329,-5169.79317916067,2327.028073762592,1362.4366961027445,-8257.000069869191,-4436.467823229337,1781.9906535901519,761.2454263787519,2005.1629919754832,-3061.671006052117,-11071.343170969109,-9992.499100534538,-12532.284385279603,-17337.48536360891,-7695.147865696957,-2799.4105690403985,-1242.1607971191404,-8435.50029553865,-5009.48805558054
-8329.78047822651,-11053.085327148436,-7477.935991789165,1956.6636336477177,30.68070662649054,-25592.038505955745,-17835.968419125205,-2243.142378957648,723.474904110557,-1001.3580322265624,-8399.110091359991,-3244.186702527498,1960.9928131103516,-742.6111321700245,-10838.947798076428,-5170.1696295487245,2327.1535572252774,1361.6210535952919,-8258.44312969007,-4436.718790154708,1780.673077231959,760.9944594533818,2003.4062234978924,-3064.368900499845,-11074.605740998917,-9995.636187101663,-12531.406001040808,-17340.559708444693,-7694.645931846216,-2800.7908871299337,-1240.0275782534948,-8431.484824732732,-5009.864505968595
-8329.27854437577,-11052.395168103669,-7477.873250057821,1957.040084035773,32.0610247160259,-25593.042373657223,-17836.15664431923,-2243.644312808388,723.5376458418996,-1001.1698070325348,-8398.984607897308,-3245.065086766293,1960.6163627222963,-743.4267746774772,-10843.7789113898,-5170.985272056178,2326.463398180509,1360.930894550524,-8259.384255660207,-4437.659916124845,1779.2300174110812,760.2415586772717,2003.1552565725224,-3066.9413114848885,-11076.36250947651,-9997.58118077328,-12529.649232563219,-17337.23439668354,-7693.2028720253375,-2803.0495894582646,-1237.3296838057668,-8426.528227956673,-5011.370307520816
-8329.215802644425,-11051.077591745476,-7478.877117759303,1956.5381501850327,33.25311761153371,-25593.41882404528,-17834.650842767012,-2244.8991474352383,722.7847450657893,-1000.7933566444796,-8399.549283479388,-3246.696371781198,1959.9262036775283,-743.7404833341898,-10845.159229479335,-5171.9891397576575,2325.396788747687,1361.2446032072367,-8259.823447779605,-4439.291201139751,1778.100666246916,759.4886579011614,2004.09638254266,-3067.945179186369,-11076.36250947651,-9997.643922504623,-12527.95520581697,-17336.7324628328,-7692.136262592515,-2802.6103973388667,-1235.4474318654911,-8424.520492553713,-5012.625142147665
-8329.27854437577,-11049.69727365594,-7480.508402774207,1955.5342824835525,33.94327665630139,-25592.72866500051,-17831.70198139391,-2246.5304324501435,721.8436190956515,-1000.354164525082,-8400.55315118087,-3248.3903985274455,1959.3615280954457,-743.2385494834499,-10842.524076762951,-5172.616557071083,2324.518404508892,1362.1857291773745,-8259.697964316918,-4440.420552303916,1777.7242158588608,759.4886579011614,2005.6649258262228,-3066.7530862908607,-11075.10767484966,-9996.263604415088,-12527.95520581697,-17341.061642295434,-7692.700938174598,-2801.041854055304,-1234.7572728207235,-8424.081300434313,-5012.499658684981
-8328.964835719058,-11049.1953398052,-7482.076946057769,1955.0950903641549,34.31972704435649,-25590.97189652292,-17828.313927901418,-2247.722525345652,721.8436190956515,-999.9149724056845,-8401.180568494292,-3248.9550741095286,1959.4242698267883,-741.6700061998868,-10838.822314613742,-5172.930265727796,2324.0792123894935,1363.4405638042247,-8259.635222585577,-4440.295068841231,1778.351633172286,760.3670421399567,2007.484436035156,-3065.435509932668,-11073.601873297437,-9994.883286325552,-12528.770848324422,-17342.00276826557,-7694.896898771585,-2799.5987942344254,-1233.5651799252155,-8424.583234285052,-5010.99385713276
-8328.525643599662,-11049.446306730568,-7483.080813759251,1954.5931565134144,34.068760118986425,-25589.277869776677,-17825.867000379058,-2248.3499426590765,722.7847450657893,-999.6640054803144,-8401.682502345033,-3248.5786237214734,1960.114428871556,-739.7250125282688,-10836.2499036287,-5172.930265727796,2324.5811462402335,1364.3816897743625,-8260.701832018398,-4439.918618453176,1779.3555008737662,761.747360229492,2009.178462781404,-3065.2472847386407,-11072.15881347656,-9994.0676438181,-12528.457139667713,-17337.297138414884,-7697.030117637232,-2797.528317100123,-1232.247603567023,-8425.27339332982,-5009.362572117855
-8330.03144515188,-11051.265816939504,-7484.712098774156,1952.2089707223993,31.81005779065584,-25589.591578433385,-17826.87086808054,-2249.855744211297,722.4710364090766,-1000.7306149131372,-8403.313787359939,-3248.6413654528164,1959.863461946186,-740.0387211849815,-10835.998936703329,-5173.306716115851,2325.0830800909744,1363.8797559236225,-8262.20763357062,-4440.2323271098885,1779.0417922170536,762.5002610056023,2010.370555676912,-3064.682609156558,-11070.778495387027,-9993.06377611662,-12527.95520581697,-17332.71699202688,-7698.849627846164,-2796.587191129985,-1231.996636641653,-8425.649843717874,-5007.7940288342925
-8333.419498644376,-11053.775486193204,-7486.845317639802,1949.1973676179584,28.54748776084498,-25591.599313836345,-17830.38440503572,-2251.2988040321748,720.7770096628288,-1002.4873833907276,-8404.81958891216,-3248.8923323781864,1958.8595942447057,-741.9837148565994,-10837.25377133018,-5173.620424772564,2325.145821822317,1362.624921296772,-8262.333117033306,-4440.295068841231,1778.351633172286,762.939453125,2011.56264857242,-3062.8630989476246,-11069.58640249152,-9991.620716295743,-12529.335523906504,-17331.46215740003,-7699.72801208496,-2797.591058831465,-1232.122120104338,-8426.465486225328,-5006.1627438193855
-8336.117393092105,-11055.532254670792,-7487.849185341282,1947.3778574090247,26.163301969829355,-25594.046241358705,-17833.14504121479,-2251.4870292262026,719.5849167673209,-1003.491251092208,-8404.631363718132,-3248.3903985274455,1958.169435199938,-743.2385494834499,-10838.25763903166,-5173.620424772564,2325.396788747687,1361.9347622520045,-8261.015540675113,-4439.7303932591485,1778.6653418289986,763.3786452443975,2012.4410328112149,-3061.23181393272,-11069.14721037212,-9991.118782445,-12531.782451428864,-17334.160051847757,-7699.414303428246,-2798.9086351896585,-1231.8711531789677,-8427.53209565815,-5005.849035162673
-8337.434969450298,-11056.787089297644,-7488.476602654707,1946.5622149015724,24.65750041760896,-25596.367685418372,-17835.278260080435,-2251.42428749486,718.7692742598683,-1004.6206022563732,-8404.003946404708,-3248.0139481393912,1957.040084035773,-744.6188675729851,-10839.637957121195,-5174.247842085988,2325.145821822317,1360.8681528191817,-8260.325381630344,-4439.855876721834,1779.1672756797386,762.7512279309725,2011.0607147216797,-3061.043588738692,-11069.962852879573,-9992.05990841514,-12533.100027787055,-17339.2421320865,-7699.288819965562,-2800.1007280851663,-1232.122120104338,-8430.041764911852,-5007.668545371607
-8336.74481040553,-11056.347897178248,-7489.04127823679,1947.8170495284232,25.347659462376644,-25596.053976761665,-17836.15664431923,-2250.734128450092,719.0202411852384,-1004.6206022563732,-8403.125562165911,-3247.3237890946234,1956.6636336477177,-745.3090266177528,-10840.892791748043,-5174.310583817331,2325.0830800909744,1360.3662189684414,-8259.823447779605,-4439.918618453176,1780.296626843904,762.0610688862048,2008.6137871993208,-3060.792621813322,-11070.025594610916,-9992.05990841514,-12531.907934891547,-17340.685191907374,-7699.351561696905,-2800.7281453985916,-1233.251471268503,-8433.743527061059,-5009.98998943128
-8334.4861080772,-11053.900969655888,-7488.664827848735,1950.7031691701784,28.73571295487253,-25592.163989418426,-17835.027293155064,-2248.7891347784744,721.3416852449116,-1002.04819127133,-8401.870727539062,-3246.0062127364304,1958.608627319336,-743.7404833341898,-10840.453599628649,-5172.8047822651115,2326.7143651058796,1361.6837953266343,-8259.007805272151,-4438.977492483038,1782.3043622468645,763.0649365876851,2007.7981446918689,-3059.349561992444,-11068.519793058695,-9990.177656474863,-12530.276649876643,-17336.544237638773,-7699.414303428246,-2800.7908871299337,-1234.569047626696,-8435.563037269992,-5011.495790983501
-8332.541114405582,-11051.579525596217,-7486.845317639802,1952.9618714985088,32.62570029810855,-25587.709326493106,-17833.270524677475,-2246.9068828381987,724.1650631553248,-998.4719125848065,-8400.992343300268,-3245.316053691663,1961.4947469610916,-741.1680723491468,-10838.947798076428,-5171.110755518863,2328.8475839715247,1363.8797559236225,-8258.631354884097,-4438.036366512901,1784.2493559184825,764.9471885279603,2009.3666879754317,-3057.279084858141,-11066.323832461707,-9987.730728952507,-12530.276649876643,-17331.399415668682,-7699.790753816303,-2800.477178473221,-1237.7688759251644,-8434.308202643142,-5012.1232082969245
-8331.976438823498,-11050.826624820103,-7485.025807430868,1953.338321886564,34.696177432411595,-25585.450624164776,-17832.705849095393,-2246.7813993755135,725.1061891254626,-996.5269189131886,-8401.180568494292,-3246.1316961991156,1963.1887737073396,-739.5995290655839,-10838.132155568976,-5171.04801378752,2329.4750012849504,1365.1345905504727,-8258.882321809466,-4438.161849975585,1785.253223619963,765.8255727667557,2011.123456453022,-3056.275217156661,-11064.943514372171,-9986.224927400286,-12530.904067190068,-17330.583773161234,-7700.543654592413,-2799.8497611597963,-1244.2312742534436,-8432.927884553606,-5013.001592535721
-8332.227405748867,-11051.265816939504,-7484.649357042813,1952.2089707223993,34.94714435778166,-25585.19965723941,-17832.705849095393,-2248.0989757337065,724.6042552747224,-996.3386937191609,-8401.682502345033,-3247.8257229453634,1963.3142571700243,-738.9721117521585,-10838.508605957028,-5172.428331877056,2328.596617046155,1365.1973322818153,-8259.258772197521,-4439.353942871093,1785.504190545333,765.8255727667557,2011.876357229132,-3057.279084858141,-11065.068997834856,-9986.224927400286,-12531.280517578123,-17335.16391954924,-7701.422038831206,-2799.0341186523433,-1250.003513536955,-8433.241593210318,-5012.687883879009
-8333.04304825632,-11052.144201178298,-7486.092416863693,1950.2639770507808,33.629567999588815,-25586.329008403576,-17832.266656975997,-2249.7930024799543,723.600387573242,-997.4680448833265,-8402.435403121144,-3249.519749691612,1962.310389468544,-738.9093700208161,-10839.700698852535,-5174.310583817331,2327.028073762592,1364.444431505705,-8260.764573749742,-4441.173453080026,1785.0022566945927,765.3863806473581,2011.688132035105,-3059.6005289178142,-11066.19834899902,-9987.291536833107,-12531.845193160207,-17343.508569817794,-7702.049456144634,-2799.536052503084,-1252.3876993279707,-8435.437553807307,-5010.429181550678
-8334.611591539884,-11053.336294073806,-7487.911927072626,1948.444466841848,30.931673551860605,-25588.148518612503,-17831.95294831928,-2250.92235364412,722.4710364090766,-999.2875550922593,-8403.125562165911,-3250.523617393092,1961.0555548416935,-739.5995290655839,-10841.206500404758,-5175.439934981496,2325.8359808670843,1363.4405638042247,-8262.395858764648,-4442.616512900904,1783.8729055304275,764.5707381399053,2010.4960391395969,-3061.043588738692,-11067.013991506476,-9988.10717934056,-12533.350994712428,-17350.97483584755,-7702.3004230700035,-2801.982980025441,-1251.0073812384353,-8438.198189986377,-5008.9861217298
-8337.184002524926,-11055.406771208109,-7489.668695550215,1946.9386652896276,27.606361790707233,-25590.28173747815,-17832.768590826734,-2251.8634796142574,721.2162017822264,-1001.1698070325348,-8403.690237747993,-3250.962809512489,1959.737978483501,-741.2308140804893,-10842.586818494292,-5175.690901906865,2325.459530479029,1362.4366961027445,-8262.082150107934,-4443.181188482987,1782.492587440892,763.6296121697677,2009.2412045127464,-3060.165204499897,-11066.574799387075,-9987.981695877876,-12536.42533954821,-17349.531776026673,-7702.049456144634,-2803.8024902343745,-1246.0507844623764,-8437.758997866978,-5009.73902250591
-8339.693671778627,-11057.100797954356,-7491.613689221834,1945.4956054687495,24.782983880293997,-25592.47769807514,-17833.8979419909,-2252.867347315738,720.2123340807462,-1002.4246416593852,-8404.254913330078,-3250.900067781147,1958.545885587993,-742.7993573640522,-10842.210368106238,-5175.377193250154,2325.647755673057,1362.373954371402,-8260.576348555715,-4442.679254632248,1781.8651701274669,763.2531617817125,2009.5549131694593,-3058.1574690969364,-11065.63367341694,-9987.291536833107,-12538.809525339224,-17338.865681698448,-7701.673005756577,-2801.8574965627568,-1241.5333798057154,-8433.367076673005,-5010.178214625308
-8341.073989868164,-11057.41450661107,-7493.621424624794,1944.7427046926396,23.2771823280736,-25594.548175209446,-17834.964551423724,-2253.0555725097647,719.5849167673209,-1002.7383503160978,-8405.007814106188,-3250.2726504677216,1958.294918662623,-743.3012912147923,-10840.70456655402,-5174.561550742701,2326.463398180509,1363.3778220728823,-8260.325381630344,-4441.800870393451,1782.116137052837,763.7550956324526,2011.123456453022,-3057.6555352461965,-11065.696415148283,-9987.793470683848,-12538.43307495117,-17330.395547967208,-7702.3004230700035,-2798.7204099956302,-1240.15306171618,-8429.665314523796,-5009.927247699938
-8341.011248136821,-11057.226281417043,-7494.688034057616,1944.9309298866672,23.33992405941612,-25595.61478464227,-17835.84293566252,-2252.0517048082847,719.8986254240336,-1001.9227078086448,-8405.447006225588,-3249.519749691612,1959.1733029014183,-742.548390438682,-10840.01440750925,-5173.683166503904,2327.8437162700448,1364.7581401624177,-8261.015540675113,-4441.110711348684,1782.8062960976047,764.6334798712478,2011.7508737664473,-3058.722144679019,-11066.574799387075,-9989.424755698756,-12536.990015130292,-17329.893614116467,-7703.8062246222225,-2798.2812178762333,-1238.8982270893296,-8428.97515547903,-5010.742890207392
-8340.697539480108,-11057.351764879728,-7495.001742714329,1944.805446423982,23.528149253443665,-25595.61478464227,-17837.035028558028,-2251.6752544202295,719.7731419613486,-1001.6717408832748,-8406.011681807668,-3250.147167005037,1959.3615280954457,-742.1091983192845,-10840.892791748043,-5174.185100354646,2327.8437162700448,1365.0718488191303,-8261.329249331824,-4441.361678274054,1782.618070903577,764.5079964085629,2010.1195887515416,-3059.6005289178142,-11067.704150551242,-9990.616848594264,-12537.42920724969,-17334.160051847757,-7706.127668681896,-2801.1045957866463,-1236.7022664923416,-8432.112242046154,-5012.876109073036
-8341.136731599505,-11057.66547353644,-7495.3154513710415,1944.052545647872,23.402665790758633,-25594.73640040347,-17838.227121453536,-2252.5536386590247,718.6437907971833,-1002.2991581967,-8406.639099121092,-3251.3392599005447,1958.4831438566507,-742.422906975997,-10842.02214291221,-5175.753643638209,2326.024206061112,1364.0679811176499,-8260.513606824372,-4442.177320781507,1781.5514614707542,763.8178373637952,2008.7392706620064,-3059.2868202611016,-11068.14334267064,-9990.240398206208,-12539.311459189967,-17338.426489579047,-7708.574596204255,-2804.3671658164567,-1234.6945310893811,-8437.633514404297,-5013.252559461092
-8341.136731599505,-11057.72821526778,-7495.127226177013,1944.1152873792144,23.90459964149876,-25593.293340582597,-17838.35260491622,-2253.243797703793,718.0163734837581,-1002.55012512207,-8406.576357389751,-3251.2137764378595,1958.294918662623,-741.9837148565994,-10842.147626374895,-5176.506544414319,2324.7693714342618,1363.3778220728823,-8259.44699739155,-4442.365545975534,1780.9867858886716,763.6923539011102,2009.680396632144,-3058.7848864103617,-11067.829634013928,-9989.173788773383,-12540.503552085474,-17339.116648623814,-7709.139271786337,-2805.496516980623,-1234.067113775956,-8441.523501747532,-5011.182082326788
-8339.568188315943,-11057.351764879728,-7494.813517520301,1945.1818968120367,24.845725611636514,-25591.41108864232,-17837.536962408765,-2253.1810559724504,718.3300821404707,-1002.173674734015,-8406.137165270353,-3250.460875661749,1958.7341107820207,-741.1053306178042,-10841.645692524156,-5176.255577488949,2325.020338359632,1363.3778220728823,-8259.886189510948,-4441.926353856136,1781.1750110826993,763.5041287070826,2010.872489527652,-3060.353429693924,-11068.833501715408,-9990.11491474352,-12540.817260742184,-17336.857946295484,-7708.4491127415695,-2804.4299075478,-1235.8238822535463,-8442.150919060958,-5010.303698087992
-8337.99964503238,-11056.849831028985,-7495.189967908355,1945.3701220060648,24.845725611636514,-25589.96802882144,-17836.595836438628,-2253.5575063605056,718.1418569464432,-1002.173674734015,-8406.576357389751,-3250.649100855777,1958.1066934685955,-741.0425888864615,-10840.955533479388,-5176.443802682977,2324.7693714342618,1363.1895968788547,-8261.517474525854,-4441.675386930767,1780.6103355006167,762.5630027369447,2011.0607147216797,-3062.73761548494,-11070.90397884971,-9992.31087534051,-12541.319194592927,-17336.23052898206,-7708.386371010227,-2803.1750729209493,-1237.015975149054,-8441.209793090818,-5011.684016177528
-8337.99964503238,-11056.7243475663,-7495.378193102384,1944.1780291105567,23.653632716128698,-25589.717061896066,-17835.717452199835,-2254.373148867958,716.8870223195928,-1002.55012512207,-8407.391999897203,-3251.778452019942,1956.5381501850327,-741.8582313939143,-10839.826182315222,-5177.008478265059,2323.7027620014387,1362.8131464907997,-8262.395858764648,-4442.0518373188215,1779.2927591424238,761.6846184981495,2010.9979729903368,-3063.1768076043377,-11072.033330013875,-9993.252001310648,-12541.256452861584,-17337.924555728307,-7708.700079666941,-2802.6731390702093,-1235.1964649401211,-8439.327541150542,-5011.997724834241
-8338.940771002517,-11057.100797954356,-7494.4998088635875,1942.5467440956515,21.64589731316817,-25590.84641306024,-17834.964551423724,-2255.188791375411,715.3812207673725,-1003.3657676295228,-8407.07829124049,-3252.7823197214225,1955.032348632812,-742.3601652446547,-10838.822314613742,-5177.259445190429,2323.138086419356,1362.750404759457,-8262.96053434673,-4442.428287706876,1778.477116634971,761.6218767668071,2011.1861981843645,-3062.612132022255,-11071.970588282535,-9993.00103438528,-12540.817260742184,-17339.116648623814,-7708.511854472912,-2802.9868477269215,-1233.9416303132707,-8436.190454583417,-5010.931115401418
-8341.387698524875,-11058.983049894632,-7494.562550594931,1940.162558304636,18.508810746042354,-25594.234466552727,-17835.59196873715,-2256.882818121659,713.2480019017269,-1005.185277838456,-8406.388132195723,-3253.911670885588,1952.8991297671664,-743.3640329461347,-10839.386990195826,-5177.510412115799,2322.573410837273,1361.6210535952919,-8263.838918585523,-4442.616512900904,1777.6614741275182,761.370909841437,2010.1195887515416,-3062.4866485595694,-11071.65687962582,-9993.06377611662,-12542.385804025747,-17339.869549399926,-7709.076530054994,-2804.3671658164567,-1236.3885578356287,-8432.865142822266,-5011.370307520816
-8344.838493748714,-11061.931911267731,-7496.005610415809,1937.7156307822777,15.246240716231496,-25599.00283813476,-17837.91341279682,-2259.078778718647,710.2991405286286,-1007.5694636294716,-8406.32539046438,-3255.4802141691507,1950.389460513466,-745.7482187371504,-10841.457467330129,-5178.388796354594,2321.1930927477383,1358.734933953536,-8263.587951660156,-4442.992963288959,1776.281156037983,759.7396248265316,2006.6060517963608,-3062.5493902909125,-11072.284296939244,-9994.255869012128,-12545.14644020482,-17341.94002653423,-7709.95491429379,-2806.123934294048,-1241.4706380743728,-8431.108374344674,-5013.001592535721
-8346.093328375564,-11062.622070312498,-7496.3193190725215,1937.3391803942225,14.367856477436264,-25601.387023925778,-17839.481956080384,-2259.831679494757,708.3541468570105,-1008.4478478682668,-8405.697973150953,-3256.6723070646585,1949.0091424239308,-747.6304706774259,-10842.77504368832,-5179.204438862047,2319.5618077328327,1356.915423744603,-8262.082150107934,-4443.683122333728,1775.7164804559004,757.7946311549134,2003.2179983038648,-3062.8630989476246,-11073.601873297437,-9995.636187101663,-12544.832731548107,-17345.077113101353,-7708.637337935596,-2806.18667602539,-1246.5527183131167,-8431.171116076017,-5012.750625610352
-8344.27381816663,-11060.802560103566,-7495.064484445672,1938.844981946443,15.87365802965666,-25600.571381418325,-17839.419214349044,-2259.5807125693873,708.1031799316405,-1007.757688823499,-8404.443138524104,-3256.8605322586855,1948.6954337672184,-747.8186958714534,-10842.147626374895,-5180.0200813695,2318.5579400313527,1357.1036489386306,-8260.764573749742,-4444.185056184467,1776.2184143066404,757.1672138414883,2003.2179983038648,-3063.6159997237355,-11073.852840222808,-9995.259736713608,-12540.064359966076,-17348.841616981907,-7705.123800980416,-2805.245550055253,-1249.8152883429275,-8433.367076673005,-5010.99385713276
-8341.826890644274,-11058.983049894632,-7494.123358475533,1940.4762669613483,17.818651701274668,-25599.379288522818,-17838.85453876696,-2259.455229106702,708.6051137823807,-1007.2557549727588,-8404.129429867393,-3256.5468236019733,1948.5072085731904,-747.7559541401109,-10841.081016942073,-5180.710240414268,2318.49519830001,1357.4173575953432,-8259.823447779605,-4443.934089259097,1776.7830898887228,757.9201146175985,2005.0375085127976,-3063.302291067023,-11072.284296939244,-9993.252001310648,-12534.73131280196,-17350.97483584755,-7702.927840383427,-2804.806357935855,-1251.1328647011203,-8436.315938046102,-5010.742890207392
-8341.073989868164,-11058.481116043891,-7494.562550594931,1941.354651200144,19.575420178865127,-25598.43816255268,-17838.038896259506,-2259.141520449989,709.3580145584909,-1007.130271510074,-8405.384264494243,-3256.6723070646585,1948.5699503045328,-747.9441793341385,-10840.453599628649,-5180.835723876952,2319.1853573447775,1357.4173575953432,-8258.945063540808,-4443.243930214328,1777.0340568140932,758.9239823190787,2007.233469109786,-3061.8592312461446,-11069.398177297491,-9990.867815519632,-12533.664703369139,-17347.147590235654,-7704.370900204306,-2804.053457159745,-1251.7602820145455,-8436.7551301655,-5011.621274446185
-8341.889632375616,-11059.42224201403,-7495.880126953123,1941.4801346628287,20.830254805715455,-25597.497036582543,-17836.846803364,-2258.7650700619342,710.0481736032585,-1007.130271510074,-8407.956675479285,-3257.5506913034537,1948.6954337672184,-747.6932124087683,-10840.328116165963,-5181.086690802323,2319.4990660014905,1357.2291324013156,-8259.572480854233,-4443.871347527755,1777.0340568140932,759.174949244449,2009.3039462440888,-3061.7964895148025,-11067.390441894528,-9989.362013967411,-12537.742915906403,-17341.124384026774,-7708.323629278885,-2803.1750729209493,-1253.1406001040807,-8436.00222938939,-5011.746757908872
-8342.26608276367,-11060.42610971551,-7496.444802535207,1941.166426006116,21.20670519377056,-25596.74413580643,-17836.344869513257,-2258.3886196738795,710.8638161107112,-1007.381238435444,-8409.776185688219,-3258.680042467619,1948.946400692588,-747.0657950953432,-10840.76730828536,-5181.588624653064,2319.1853573447775,1356.789940281918,-8260.890057212428,-4445.377149079975,1776.7203481573806,758.5475319310236,2009.8058800948288,-3062.925840678968,-11067.327700163187,-9989.173788773383,-12542.19757883172,-17339.99503286261,-7710.645073338558,-2803.3005563836346,-1255.3993024324116,-8435.751262464019,-5010.868373670076
-8342.20334103233,-11060.865301834909,-7496.068352147152,1940.2880417673207,19.826387104235195,-25596.806877537776,-17836.784061632658,-2258.514103136564,710.8010743793689,-1008.134139211554,-8409.901669150904,-3259.432943243729,1948.7581754985608,-747.0657950953432,-10842.084884643553,-5181.965075041118,2318.118747911955,1355.7860725804378,-8261.078282406454,-4446.192791587428,1775.8419639185854,756.9789886474608,2007.986369885896,-3063.1768076043377,-11069.209952103463,-9990.679590325606,-12543.89160557797,-17344.073245399875,-7709.578463905735,-2804.053457159745,-1258.2226803428248,-8434.872878225226,-5010.303698087992
-8342.705274883068,-11061.367235685648,-7495.754643490438,1939.0332071404705,17.003009193821956,-25597.559778313884,-17837.66244587145,-2259.5179708380447,708.9815641704358,-1009.4517155697469,-8409.08602664345,-3259.307459781044,1948.2562416478208,-747.8186958714534,-10843.402461001744,-5182.404267160516,2316.4874628970497,1354.7194631476148,-8260.576348555715,-4446.192791587428,1774.7753544857624,755.3477036325554,2005.3512171695104,-3062.423906828228,-11071.782363088507,-9992.938292653937,-12543.6406386526,-17348.025974474454,-7707.633470234116,-2804.4299075478,-1260.9833165218954,-8434.496427837172,-5010.115472893965
-8344.21107643529,-11063.061262431896,-7495.817385221781,1937.9038559763048,14.1168895520662,-25598.87735467208,-17838.603571841588,-2260.5845802708673,706.5973783794202,-1010.6438084652548,-8407.893933747942,-3258.5545590049337,1947.942532991108,-748.6343383789061,-10843.27697753906,-5182.467008891857,2315.546336926912,1354.5312379535872,-8259.823447779605,-4446.0045663934,1774.8380962171047,754.4693193937602,2003.9081573486324,-3061.3572973954047,-11072.598005595957,-9993.502968236018,-12542.88773787649,-17348.590650056536,-7707.257019846061,-2804.4926492791424,-1262.3636346114308,-8435.249328613281,-5009.864505968595
-8346.344295300934,-11064.818030909488,-7495.880126953123,1937.2136969315377,12.924796656558385,-25600.383156224296,-17839.60743954307,-2260.5845802708673,705.84447760331,-1010.8320336592824,-8406.764582583777,-3257.7389164974807,1948.0680164537928,-749.0735304983036,-10841.457467330129,-5181.52588292172,2316.2992377030214,1355.4723639237252,-8259.070547003494,-4445.251665617289,1776.281156037983,754.7202863191302,2004.7237998560852,-3060.1024627685542,-11070.276561536284,-9991.620716295743,-12543.326929995887,-17346.959365041632,-7708.072662353514,-2804.4299075478,-1260.2931574771278,-8435.374812075965,-5010.429181550678
-8347.9128385845,-11065.508189954255,-7496.1310938784945,1937.1509552001953,13.552213969983551,-25601.88895777652,-17840.61130724455,-2259.706196032072,707.0993122301603,-1010.5183250025696,-8406.890066046462,-3257.111499184056,1948.3189833791632,-749.3244974236737,-10840.390857897304,-5180.27104829487,2318.118747911955,1356.2252646998354,-8259.44699739155,-4444.310539647152,1778.2888914409434,755.786895751953,2006.4178266023328,-3059.0985950670743,-11067.264958431844,-9989.801206086808,-12545.397407130187,-17346.14372253418,-7708.700079666941,-2804.9945831298824,-1255.5875276264387,-8435.50029553865,-5011.119340595445
-8348.163805509868,-11065.63367341694,-7496.507544266548,1937.5274055882503,14.995273790861429,-25602.95556720934,-17841.36420802066,-2259.016036987304,708.4168885883531,-1010.5183250025696,-8407.705708553916,-3256.8605322586855,1948.3189833791632,-749.9519147370991,-10841.206500404758,-5180.0200813695,2319.24809907612,1355.7860725804378,-8260.764573749742,-4444.49876484118,1779.2927591424238,756.4143130653782,2007.0452439157584,-3058.6594029476764,-11066.449315924392,-9989.675722624124,-12547.65610945852,-17347.39855716103,-7708.700079666941,-2807.127801995528,-1252.0112489399155,-8435.814004195363,-5010.6174067447055
-8347.159937808385,-11065.445448222912,-7496.193835609837,1938.2803063643605,16.501075343081823,-25603.018308940686,-17841.489691483344,-2258.3886196738795,708.6678555137232,-1010.4555832712272,-8407.391999897203,-3256.9232739900285,1948.444466841848,-750.7675572445517,-10842.524076762951,-5180.52201522024,2318.99713215075,1355.0331718043276,-8260.95279894377,-4445.188923885948,1778.9790504857112,755.7241540206105,2006.480568333676,-3058.4711777536486,-11067.6414088199,-9990.240398206208,-12548.220785040605,-17349.155325638618,-7707.507986771432,-2808.947312204461,-1251.7602820145455,-8435.186586881937,-5009.550797311882
-8345.46591106214,-11064.002388402032,-7494.813517520301,1939.5351409912107,18.13236035798725,-25602.077182970545,-17840.799532438577,-2257.3220102410564,708.8560807077507,-1009.5144573010896,-8405.948940076325,-3257.111499184056,1948.8836589612456,-751.0812659012641,-10843.151494076375,-5180.647498682924,2318.118747911955,1354.8449466103,-8259.44699739155,-4445.314407348632,1778.100666246916,754.8457697818153,2006.1041179456208,-3058.4084360223064,-11069.14721037212,-9990.679590325606,-12547.40514253315,-17349.218067369962,-7705.43750963713,-2808.194411428351,-1254.018984342876,-8434.245460911798,-5009.048863461143
-8343.960109509919,-11061.618202611018,-7493.182232505395,1940.664492155376,19.826387104235195,-25600.759606612355,-17839.92114819978,-2255.8789504201786,710.1736570659436,-1008.2596226742392,-8405.760714882297,-3257.111499184056,1949.0718841552728,-750.5165903191815,-10843.7789113898,-5180.52201522024,2317.9305227179275,1355.1586552670124,-8258.568613152753,-4445.75359946803,1776.9713150827506,755.0967367071854,2006.5433100650184,-3059.0985950670743,-11069.64914422286,-9990.805073788291,-12547.028692145095,-17348.276941399825,-7704.245416741621,-2805.93570910002,-1256.5913953279191,-8434.245460911798,-5010.052731162623
-8343.269950465152,-11060.049659327457,-7492.743040385998,1940.9782008120883,20.51654614900288,-25599.88122237356,-17839.92114819978,-2255.1260496440686,711.3657499614515,-1008.0713974802115,-8407.580225091231,-3257.3624661094254,1948.8209172299032,-749.5127226177015,-10844.971004285308,-5181.02394907098,2317.867780986585,1355.2213969983552,-8259.823447779605,-4447.447626214278,1775.9047056499276,755.786895751953,2007.4216943038132,-3060.478913156609,-11069.398177297491,-9990.616848594264,-12546.903208682408,-17350.72386892218,-7704.49638366699,-2804.7436162045124,-1257.3442961040296,-8435.939487658048,-5011.746757908872
-8342.642533151724,-11059.296758551343,-7492.617556923314,1941.291909468801,20.07735402960526,-25598.94009640342,-17840.42308205052,-2255.1260496440686,711.6167168868216,-1008.134139211554,-8409.399735300163,-3257.299724378084,1949.0091424239308,-748.257887990851,-10845.849388524104,-5181.52588292172,2317.4913305985297,1355.4723639237252,-8261.768441451222,-4448.639719109786,1775.9047056499276,756.3515713340357,2007.8608864232112,-3061.169072201377,-11069.021726909436,-9990.428623400237,-12545.14644020482,-17357.123525519117,-7705.061059249075,-2804.304424085115,-1255.2738189697263,-8437.758997866978,-5012.248691759611
-8341.324956793533,-11058.66934123792,-7492.05288134123,1942.0448102449116,19.449936716180098,-25597.8734869706,-17840.42308205052,-2255.063307912726,711.7422003495066,-1007.381238435444,-8409.587960494191,-3256.6723070646585,1949.8247849313836,-746.9403116326582,-10845.598421598732,-5181.212174265008,2317.9305227179275,1356.413489893863,-8262.646825690017,-4448.200526990388,1776.8458316200656,756.6025382594057,2007.8608864232112,-3061.106330470034,-11069.14721037212,-9990.742332056947,-12541.695644980982,-17361.703671907122,-7704.998317517731,-2804.116198891087,-1251.2583481638053,-8435.563037269992,-5011.307565789472
-8340.572056017423,-11058.66934123792,-7491.801914415859,1942.5467440956515,18.75977767141241,-25597.68526177657,-17839.795664737096,-2255.188791375411,712.0559090062192,-1006.3773707339636,-8408.835059718082,-3255.6056976318355,1950.7659109015208,-745.9364439311779,-10844.343586971883,-5180.333790026212,2319.5618077328327,1357.7938079833982,-8262.395858764648,-4447.008434094881,1777.7869575902034,757.1044721101459,2007.7981446918689,-3060.7298800819794,-11069.460919028832,-9991.118782445,-12539.625167846676,-17358.754810534025,-7704.810092323704,-2804.93184139854,-1247.7448112086245,-8429.414347598426,-5009.98998943128
-8340.885764674136,-11058.606599506578,-7492.554815191971,1943.362386603104,18.885261134097448,-25597.622520045228,-17838.038896259506,-2254.7495992560134,712.4951011256168,-1004.8088274504008,-8407.391999897203,-3253.7861874229025,1952.3971959164264,-744.8698344983552,-10842.084884643553,-5178.827988473992,2321.883251792506,1359.7388016550162,-8261.45473279451,-4445.565374274001,1778.728083560341,758.4847901996812,2008.488303736636,-3059.663270649157,-11068.89624344675,-9990.30313993755,-12540.754519010845,-17349.40629256399,-7705.061059249075,-2805.6220004433076,-1246.489976581774,-8425.02242640445,-5008.797896535772
-8341.764148912931,-11057.790956999124,-7492.994007311368,1944.3035125732415,20.51654614900288,-25596.86961926912,-17835.90567739386,-2253.620248091848,713.3107436330694,-1002.7383503160978,-8406.388132195723,-3252.280385870682,1954.21670612536,-744.1169337222451,-10840.70456655402,-5177.510412115799,2323.2008281506987,1360.9936362818667,-8260.325381630344,-4444.247797915808,1779.6064677991362,759.3631744384764,2008.4255620052936,-3058.847628141704,-11068.457051327352,-9989.487497430098,-12543.138704801859,-17341.249867489463,-7706.002185219213,-2805.1200665925676,-1246.113526193719,-8426.026294105932,-5008.044995759662
-8341.95237410696,-11056.7243475663,-7491.801914415859,1944.993671618009,22.5242815519634,-25596.116718493005,-17835.278260080435,-2252.867347315738,714.4400947972347,-1001.4835156892472,-8406.388132195723,-3251.652968557257,1954.9068651701273,-744.3051589162724,-10841.520209061471,-5177.008478265059,2323.2008281506987,1360.3662189684414,-8259.760706048262,-4443.432155408357,1779.6692095304788,758.7357571250514,2005.539442363538,-3059.537787186472,-11069.64914422286,-9990.742332056947,-12544.017089040655,-17338.865681698448,-7706.253152144581,-2804.4926492791424,-1245.2351419549238,-8430.355473568563,-5008.044995759662
-8340.823022942794,-11056.034188521535,-7489.8569207442415,1946.1230227821748,24.218308298211348,-25595.61478464227,-17835.717452199835,-2252.4281551963404,716.4478302001952,-1001.2325487638772,-8406.137165270353,-3251.151034706517,1955.0950903641549,-744.5561258416427,-10843.151494076375,-5177.322186921771,2322.887119493986,1358.734933953536,-8260.074414704974,-4443.243930214328,1778.9163087543686,757.9828563489411,2002.151388871042,-3061.169072201377,-11070.966720581053,-9992.750067459907,-12543.326929995887,-17340.434224982007,-7704.810092323704,-2804.6181327418276,-1244.294015984786,-8434.559169568513,-5009.174346923827
-8339.128996196545,-11055.908705058848,-7488.225635729337,1947.7543077970804,25.72410985043174,-25594.73640040347,-17836.15664431923,-2251.42428749486,718.8947577225533,-1001.1698070325348,-8405.697973150953,-3251.088292975174,1955.72250767758,-744.1169337222451,-10843.716169658457,-5178.137829429224,2322.6988942999587,1357.7938079833982,-8260.827315481087,-4443.745864065068,1778.4143749036284,758.1710815429686,2002.0886471396996,-3061.9219729774873,-11070.65301192434,-9992.750067459907,-12542.134837100379,-17344.44969578793,-7703.116065577455,-2804.2416823537724,-1244.4822411788136,-8436.064971120733,-5009.864505968595
-8337.434969450298,-11055.406771208109,-7486.719834177116,1949.1973676179584,27.606361790707233,-25592.97963192588,-17836.093902587887,-2249.7930024799543,720.8397513941713,-1000.7306149131372,-8405.823456613638,-3251.590226825914,1956.6636336477177,-743.3012912147923,-10842.963268882348,-5178.639763279964,2322.8243777626435,1358.483967028166,-8261.45473279451,-4443.934089259097,1778.728083560341,759.300432707134,2005.1629919754832,-3060.667138350637,-11068.457051327352,-9990.428623400237,-12541.758386712325,-17350.535643728155,-7702.802356920743,-2802.9868477269215,-1245.862559268349,-8433.304334941662,-5009.1116051924855
-8335.866426166735,-11054.340161775286,-7485.59048301295,1950.0130101254113,28.986679880242598,-25591.285605179637,-17835.780193931176,-2248.412684390419,721.7181356329666,-1000.354164525082,-8405.697973150953,-3252.4058693333673,1957.291050961143,-743.0503242894221,-10842.461335031609,-5178.137829429224,2323.138086419356,1359.5505764609889,-8261.203765869139,-4443.620380602384,1779.4809843364512,759.8651082892167,2006.9197604530732,-3059.412303723787,-11066.700282849763,-9988.860080116672,-12542.762254413805,-17355.680465698242,-7702.865098652086,-2802.045721756784,-1244.7959498355262,-8429.037897210372,-5008.295962685032
-8335.74094270405,-11054.151936581258,-7485.778708206979,1949.8247849313836,28.35926256681743,-25591.285605179637,-17836.093902587887,-2248.412684390419,721.0907183195415,-1001.0443235698496,-8405.133297568873,-3253.0332866467925,1957.2283092298,-743.8659667968749,-10842.900527151007,-5177.322186921771,2323.012602956672,1359.2996095356186,-8260.701832018398,-4443.808605796412,1779.9201764558488,759.174949244449,2006.0413762142784,-3059.035853335732,-11067.013991506476,-9988.985563579357,-12543.89160557797,-17354.488372802734,-7702.614131726716,-2802.6103973388667,-1240.6549955669202,-8428.034029508892,-5008.48418787906
-8337.685936375665,-11056.15967198422,-7487.472734953226,1948.2562416478208,25.661368119089225,-25592.97963192588,-17836.909545095343,-2250.232194599352,719.2084663792659,-1002.6128668534126,-8405.07055583753,-3253.5352204975325,1956.22444152832,-745.3090266177528,-10843.7789113898,-5177.322186921771,2321.8205100611635,1357.7938079833982,-8260.95279894377,-4445.063440423262,1779.2927591424238,757.9828563489411,2004.4728329307152,-3059.475045455129,-11068.519793058695,-9989.989431280836,-12543.828863846627,-17347.39855716103,-7702.48864826403,-2804.053457159745,-1238.0825845818767,-8429.53983106111,-5009.425313849198
-8340.25834736071,-11059.296758551343,-7489.480470356188,1945.6210889314348,22.39879808927837,-25595.23833425421,-17836.972286826684,-2252.741863853053,716.7615388569078,-1003.6794762862356,-8405.196039300214,-3254.3508630049846,1954.844123438785,-746.4383777819181,-10843.904394852487,-5178.451538085937,2320.0009998522305,1356.2252646998354,-8261.95666664525,-4446.631983706825,1777.9124410528884,756.7907634534333,2003.3434817665495,-3060.980847007349,-11070.1510780736,-9991.9971666838,-12542.511287488434,-17341.626317877515,-7701.861230950606,-2805.057324861225,-1236.9532334177115,-8430.229990105878,-5009.48805558054
-8342.32882449501,-11061.743686073703,-7490.798046714381,1943.4251283344468,20.014612298262744,-25596.9951027318,-17836.15664431923,-2254.624115793328,714.7538034539473,-1003.993184942948,-8405.07055583753,-3255.542955900493,1953.9657391999892,-746.8148281699731,-10842.963268882348,-5180.0200813695,2318.620681762695,1355.4723639237252,-8263.148759540758,-4447.384884482935,1776.9085733514082,756.3515713340357,2003.6571904232624,-3062.6748737535977,-11070.715753655684,-9993.126517847964,-12541.381936324267,-17343.006635967053,-7701.233813637183,-2805.43377524928,-1235.0082397460935,-8430.920149150646,-5007.98225402832
-8343.45817565918,-11062.12013646176,-7491.237238833777,1942.860452752364,19.70090364155016,-25597.748003507917,-17835.215518349094,-2254.875082718698,714.1263861405221,-1003.491251092208,-8405.258781031558,-3256.2958566766038,1953.9029974686473,-746.3756360505757,-10841.7084342555,-5180.7729821456105,2318.74616522538,1356.2880064311776,-8264.027143779553,-4447.071175826223,1777.2850237394632,757.1672138414883,2005.6649258262228,-3063.23954933568,-11069.711885954202,-9991.934424952457,-12541.695644980982,-17348.96710044459,-7702.48864826403,-2805.43377524928,-1233.376954731188,-8433.241593210318,-5006.288227282072
-8343.20720873381,-11060.739818372223,-7491.111755371091,1943.7388369911596,21.018479999743008,-25597.4342948512,-17834.83906796104,-2254.122181942588,715.1302538420024,-1002.55012512207,-8405.823456613638,-3255.668439363178,1954.5931565134144,-745.4345100804378,-10841.2692421361,-5180.333790026212,2319.5618077328327,1357.4173575953432,-8263.838918585523,-4446.381016781456,1778.9163087543686,757.8573728862561,2006.6687935277037,-3062.73761548494,-11068.833501715408,-9990.365881668893,-12542.824996145147,-17353.609988563938,-7704.935575786387,-2805.6220004433076,-1233.376954731188,-8436.504163240132,-5005.911776894017
-8341.701407181587,-11059.17127508866,-7490.798046714381,1945.1191550806948,22.963473671361015,-25596.618652343743,-17835.466485274465,-2253.369281166478,716.6987971255653,-1002.04819127133,-8406.011681807668,-3254.288121273643,1955.5970242148949,-744.4933841103002,-10841.520209061471,-5179.329922324732,2320.628417165656,1357.9192914460834,-8262.709567421358,-4445.628116005345,1780.547593769274,758.233823274311,2006.1668596769632,-3061.545522589432,-11068.582534790035,-9989.612980892784,-12543.577896921255,-17354.551114534075,-7706.253152144581,-2806.18667602539,-1235.3846901341487,-8438.135448255036,-5006.664677670127
-8339.44270485326,-11057.539990073756,-7490.421596326325,1946.8131818269424,25.84959331311677,-25595.42655944824,-17836.031160856546,-2252.365413464998,719.2084663792659,-1000.9815818385072,-8405.447006225588,-3253.158770109477,1957.3537926924853,-743.1758077521072,-10841.331983867443,-5178.075087697882,2322.887119493986,1359.1741260729336,-8262.082150107934,-4444.812473497892,1781.8651701274669,759.7396248265316,2006.982502184416,-3060.416171425267,-11067.202216700503,-9988.420887997278,-12543.389671727227,-17352.417895668426,-7705.562993099815,-2805.998450831363,-1237.5179089997944,-8436.127712852076,-5007.354836714894
-8336.682068674185,-11055.15580428274,-7489.480470356188,1949.134625886616,29.865064119037825,-25593.293340582597,-17835.529227005805,-2250.483161524722,722.7847450657893,-998.5973960474915,-8404.380396792762,-3251.778452019942,1960.302654065584,-741.2308140804893,-10840.328116165963,-5176.255577488949,2326.0869477924543,1362.0602457146895,-8261.893924913908,-4443.871347527755,1783.4964551423723,762.5630027369447,2010.3078139455688,-3059.475045455129,-11064.692547446803,-9986.413152594314,-12541.94661190635,-17349.594517758014,-7703.994449816251,-2804.7436162045124,-1236.5767830296563,-8432.488692434212,-5007.22935325221
-8334.423366345856,-11053.273552342464,-7488.602086117392,1950.5776857074936,32.876667223478606,-25590.28173747815,-17834.588101035668,-2248.4754261217618,725.7336064388877,-996.5896606445312,-8403.188303897252,-3250.209908736379,1962.6240981252568,-739.0348534835011,-10839.26150673314,-5174.498809011358,2328.7221005088404,1364.8836236251027,-8261.391991063167,-4442.240062512848,1785.4414488139903,765.3863806473581,2014.07231782612,-3057.843760440224,-11062.433845118472,-9984.405417191354,-12539.750651309363,-17349.40629256399,-7701.610264025235,-2803.92797369706,-1232.7495374177631,-8431.233857807358,-5006.664677670127
-8333.670465569745,-11052.771618491724,-7488.915794774106,1950.5776857074936,33.37860107421875,-25587.521101299084,-17833.270524677475,-2247.2833332262535,727.4903749164781,-995.5230512117084,-8401.933469270403,-3249.080557572214,1963.502482364052,-737.4663101999382,-10837.943930374948,-5173.306716115851,2330.102418598376,1366.4521669086655,-8260.011672973633,-4439.918618453176,1787.3864424856083,767.707824707031,2016.3310201544507,-3056.024250231291,-11060.928043566251,-9982.899615639133,-12537.742915906403,-17352.6688625938,-7698.096727070055,-2803.8024902343745,-1230.2398681640623,-8433.116109747634,-5006.664677670127
-8334.98804192794,-11053.336294073806,-7491.29998056512,1949.5738180060132,31.559090865285768,-25586.579975328943,-17832.203915244652,-2247.220591494912,727.113924528423,-995.5230512117084,-8401.807985807718,-3248.8923323781864,1963.0632902446544,-737.8427605879933,-10836.75183747944,-5172.9930074591375,2329.9769351356904,1366.4521669086655,-8258.631354884097,-4438.538300363641,1787.951118067691,768.0215333637436,2014.9507020649155,-3055.6477998432356,-11061.743686073703,-9983.338807758531,-12537.052756861634,-17355.492240504213,-7696.528183786491,-2804.053457159745,-1231.6201862535977,-8434.810136493883,-5007.417578446237
-8338.376095420435,-11055.093062551396,-7494.939000982986,1947.6288243343956,28.17103737278988,-25588.52496900056,-17832.580365632708,-2248.036234002364,724.666997006065,-996.7778858385587,-8403.502012553967,-3249.519749691612,1961.8711973491463,-739.8504959909537,-10837.065546136151,-5173.871391697933,2328.4711335834695,1364.8836236251027,-8258.756838346782,-4439.416684602435,1786.382574784128,765.9510562294406,2010.6842643336245,-3057.7810187088808,-11065.508189954255,-9986.413152594314,-12538.621300145196,-17353.735472026623,-7698.410435726768,-2805.496516980623,-1233.8788885819283,-8432.990626284949,-5008.23322095369
-8340.948506405479,-11056.849831028985,-7496.3193190725215,1946.5622149015724,25.786851581774258,-25590.84641306024,-17833.33326640882,-2248.412684390419,722.7847450657893,-997.4680448833265,-8404.380396792762,-3249.833458348324,1961.243780035721,-740.7916219610916,-10837.379254792864,-5174.373325548673,2327.4045241506474,1364.1307228489925,-8260.325381630344,-4440.859744423314,1784.8767732319077,764.3825129458778,2008.4255620052936,-3060.667138350637,-11068.331567864669,-9989.173788773383,-12540.064359966076,-17348.276941399825,-7700.4809128610705,-2808.1316696970084,-1234.7572728207235,-8428.724188553657,-5008.48418787906
-8341.011248136821,-11057.539990073756,-7494.248841938219,1947.1896322149976,25.347659462376644,-25592.603181537823,-17833.8979419909,-2248.726393047132,721.7181356329666,-997.9699787340664,-8403.752979479337,-3249.833458348324,1960.6791044536387,-740.352429841694,-10837.567479986892,-5174.310583817331,2326.463398180509,1364.0679811176499,-8261.705699719878,-4441.800870393451,1784.061130724455,763.8178373637952,2007.9236281545536,-3062.3611650968846,-11069.398177297491,-9990.679590325606,-12540.315326891447,-17344.51243751927,-7701.73574748792,-2811.268756264134,-1233.8161468505857,-8427.343870464123,-5009.6135390432255
-8339.191737927886,-11057.289023148383,-7490.04514593827,1948.5699503045328,25.535884656404193,-25594.73640040347,-17834.713584498353,-2249.0401017038444,720.3378175434312,-999.5385220176295,-8402.372661389802,-3250.209908736379,1959.0478194387333,-740.7916219610916,-10839.073281539111,-5174.373325548673,2324.9575966282887,1363.001371684827,-8262.082150107934,-4442.616512900904,1782.8690378289473,762.3747775429172,2005.8531510202504,-3063.114065872995,-11070.65301192434,-9992.248133609168,-12539.750651309363,-17344.324212325246,-7701.673005756577,-2813.6529420551497,-1231.8084114476253,-8428.535963359633,-5012.185950028268
-8337.058519062242,-11056.598864103617,-7485.7159664756355,1949.7620432000408,25.786851581774258,-25596.49316888106,-17835.215518349094,-2248.6009095844465,718.7692742598683,-1000.9188401071648,-8400.678634643553,-3250.7118425871195,1957.4792761551705,-742.2346817819695,-10841.582950792812,-5174.624292474044,2323.514536807412,1360.930894550524,-8261.45473279451,-4443.4948971397,1781.0495276200143,759.9905917519015,2003.4689652292348,-3063.3650327983646,-11072.221555207903,-9993.816676892733,-12538.68404187654,-17344.2614705939,-7699.037853040192,-2813.5902003238075,-1232.6867956864205,-8427.594837389493,-5014.256427162572
-8335.866426166735,-11056.347897178248,-7483.331780684621,1950.0130101254113,25.84959331311677,-25596.86961926912,-17835.529227005805,-2248.3499426590765,717.0752475136204,-1001.8599660773024,-8399.737508673414,-3251.590226825914,1956.3499249910049,-744.0541919909026,-10843.841653121144,-5174.938001130756,2321.757768329821,1358.734933953536,-8260.325381630344,-4444.310539647152,1778.2888914409434,757.5436642295435,2003.1552565725224,-3063.74148318642,-11073.727356760124,-9995.071511519582,-12537.805657637744,-17341.877284802886,-7696.339958592464,-2811.143272801449,-1237.7688759251644,-8425.02242640445,-5014.632877550625
-8336.24287655479,-11057.539990073756,-7483.83371453536,1948.6954337672184,24.845725611636514,-25596.806877537776,-17836.784061632658,-2249.604777285927,715.3184790360299,-1003.3030258981804,-8400.490409449527,-3252.8450614527646,1954.844123438785,-745.8109604684929,-10845.410196404708,-5175.753643638209,2319.1853573447775,1356.413489893863,-8260.011672973633,-4445.314407348632,1774.71261275442,755.0339949758429,2003.4689652292348,-3064.808092619244,-11075.484125237715,-9996.389087877775,-12537.617432443716,-17339.053906892474,-7695.712541279038,-2808.6336035477484,-1239.7138695967824,-8424.457750822368,-5013.252559461092
-8338.062386763722,-11059.6732089394,-7486.908059371144,1946.4367314388876,22.963473671361015,-25596.49316888106,-17839.29373088636,-2251.7379961515726,714.3773530658922,-1005.3107613011408,-8402.56088658383,-3253.6607039602177,1952.6481628417969,-747.3167620207133,-10847.041481419612,-5177.133961727744,2316.8011715537623,1353.9665623715048,-8260.513606824372,-4446.569241975481,1771.575526187294,752.7125509161699,2002.653322721782,-3065.435509932668,-11076.676218133223,-9997.51843904194,-12538.558558413855,-17338.05003919099,-7695.524316085011,-2808.319894891036,-1234.1298555072983,-8426.716453150697,-5011.621274446185
-8339.944638703997,-11060.928043566251,-7490.107887669613,1945.1818968120367,21.58315558182565,-25595.112850791527,-17840.86227416992,-2252.4908969276826,715.2557373046874,-1006.0636620772513,-8404.129429867393,-3253.096028378135,1951.832520334344,-748.0696627968235,-10847.73164046438,-5177.573153847142,2316.1110125089945,1352.9626946700243,-8259.760706048262,-4446.50650024414,1770.571658485814,751.8341666773744,2002.2141306023843,-3064.055191843133,-11075.735092163084,-9997.267472116568,-12540.001618234732,-17338.614714773077,-7694.834157040244,-2809.574729517886,-1225.4087548506886,-8429.100638941714,-5010.366439819335
-8341.387698524875,-11061.053527028937,-7491.362722296462,1945.6838306627772,21.959605969880755,-25593.23059885125,-17839.92114819978,-2250.985095375462,717.7026648270455,-1004.7460857190584,-8403.815721210678,-3251.7157102885994,1953.526547080592,-747.3795037520558,-10846.539547568873,-5176.443802682977,2317.3031054045023,1354.4684962222448,-8258.631354884097,-4445.00069869192,1772.0147183066915,752.5243257221421,2003.5317069605771,-3062.172939902857,-11073.413648103411,-9995.636187101663,-12541.381936324267,-17340.24599978798,-7694.959640502928,-2810.2021468313114,-1216.9386211194487,-8429.100638941714,-5008.23322095369
-8342.32882449501,-11060.614334909538,-7489.8569207442415,1947.6915660657376,23.59089098478618,-25592.038505955745,-17838.10163799085,-2248.5381678531044,720.0868506180611,-1002.6128668534126,-8401.807985807718,-3250.398133930407,1956.0362163342925,-745.9991856625205,-10844.531812165911,-5175.0007428620975,2318.8089069567222,1356.538973356548,-8258.945063540808,-4443.620380602384,1774.0224537096524,753.841902080335,2005.8531510202504,-3062.0474564401725,-11071.531396163136,-9993.628451698703,-12541.63290324964,-17342.00276826557,-7695.587057816355,-2810.766822413394,-1206.2097850598786,-8426.026294105932,-5004.9706509238795
-8341.638665450244,-11059.484983745371,-7485.778708206979,1950.326718782124,25.347659462376644,-25592.038505955745,-17837.91341279682,-2247.032366300884,720.7142679314862,-1001.8599660773024,-8399.047349628649,-3249.7707166169816,1956.6008919163755,-745.9991856625205,-10843.7789113898,-5175.0007428620975,2318.74616522538,1356.789940281918,-8260.262639899001,-4443.4948971397,1774.21067890368,754.3438359310752,2007.0452439157584,-3063.302291067023,-11070.90397884971,-9992.56184226588,-12539.68790957802,-17343.571311549134,-7694.332223189503,-2812.084398771587,-1192.2811207018399,-8421.446147717927,-5002.900173789576
-8339.568188315943,-11057.289023148383,-7480.82211143092,1952.1462289910564,26.79071928325452,-25593.042373657223,-17838.35260491622,-2247.220591494912,719.961367155376,-1002.6756085847552,-8396.914130763003,-3250.0844252736943,1954.6558982447568,-747.3167620207133,-10844.406328703224,-5176.443802682977,2317.24036367316,1355.3468804610402,-8261.768441451222,-4444.5615065725215,1772.265685232062,753.841902080335,2006.6060517963608,-3064.933576081928,-11071.280429237764,-9993.126517847964,-12537.052756861634,-17344.575179250616,-7690.25401065224,-2811.8961735775592,-1181.8032515676396,-8417.932610762746,-5002.900173789576
-8336.80755213687,-11053.900969655888,-7477.183091013055,1952.7109045731393,28.2337791041324,-25593.481565776623,-17837.160512020713,-2248.412684390419,719.0829829165809,-1003.1775424354954,-8396.035746524209,-3251.088292975174,1952.4599376477688,-748.0069210654809,-10844.343586971883,-5178.26331289191,2316.1110125089945,1354.2175292968748,-8262.772309152702,-4446.0045663934,1770.3834332917863,753.2144847669099,2005.790409288908,-3066.5648610968337,-11072.033330013875,-9994.506835937498,-12534.856796264647,-17342.818410773023,-7684.858221756783,-2808.319894891036,-1180.5484169407891,-8415.234716315017,-5002.523723401521
-8335.552717510021,-11051.7050090589,-7477.496799669768,1951.4560699462888,28.422004298159948,-25593.356082313938,-17835.34100181178,-2250.734128450092,717.4516979016755,-1003.3657676295228,-8397.039614225689,-3253.3469953035046,1950.8913943642065,-748.132404528166,-10844.280845240542,-5180.27104829487,2314.981661344829,1353.3391450580796,-8263.399726466128,-4448.075043527703,1769.630532515676,752.2106170654295,2005.288475438168,-3067.6314705296563,-11073.413648103411,-9995.887154027034,-12534.41760414525,-17340.496966713352,-7682.411294234425,-2804.2416823537724,-1186.571623149671,-8413.352464374742,-5001.582597431383
-8336.74481040553,-11052.834360223069,-7481.073078356289,1948.8836589612456,26.916202745939557,-25593.732532701986,-17835.15277661775,-2253.369281166478,715.2557373046874,-1004.1186684056332,-8399.423800016704,-3255.793922825864,1949.9502683940684,-748.132404528166,-10845.347454673363,-5182.02781677246,2313.6013432552936,1352.648986013312,-8264.152627242238,-4450.459229318719,1769.4423073216487,750.8930407072367,2005.0375085127976,-3068.1334043803963,-11075.10767484966,-9997.141988653884,-12535.609697040756,-17341.18712575812,-7684.293546174701,-2802.7986225328946,-1196.422074970446,-8415.171974583674,-5002.210014744808
-8338.125128495065,-11055.532254670792,-7483.770972804017,1947.25237394634,26.163301969829355,-25594.234466552727,-17836.4076112446,-2254.247665405273,715.0047703793174,-1004.4323770623456,-8401.682502345033,-3255.9821480198907,1950.640427438836,-747.2540202893708,-10846.539547568873,-5182.655234085885,2313.664084986636,1353.150919864052,-8265.470203600433,-4451.5258387515405,1769.4423073216487,751.0185241699218,2004.8492833187704,-3069.3882390072467,-11076.550734670538,-9998.145856355362,-12537.052756861634,-17343.19486116108,-7686.865957159744,-2804.555391010485,-1209.0331629702919,-8419.061961926913,-5004.092266685084
-8339.00351273386,-11058.16740738718,-7484.649357042813,1946.3739897075448,26.03781850714432,-25594.98736732884,-17838.729055304273,-2253.6829898231904,716.5105719315377,-1004.4323770623456,-8403.188303897252,-3254.6645716616977,1952.2089707223993,-746.187410856548,-10847.794382195723,-5182.2787836978305,2315.107144807514,1353.8410789088196,-8266.160362645196,-4450.835679706774,1769.5677907843335,752.1478753340871,2003.9081573486324,-3070.3293649773846,-11076.927185058592,-9998.271339818048,-12538.621300145196,-17344.01050366853,-7688.309016980621,-2808.7590870104336,-1224.5303706118934,-8419.061961926913,-5005.284359580592
-8339.756413509971,-11059.798692402086,-7485.402257818925,1946.24850624486,25.033950805664055,-25595.23833425421,-17840.548565513207,-2253.0555725097647,717.8908900210731,-1004.6206022563732,-8403.376529091282,-3253.4724787661894,1953.4638053492492,-745.9364439311779,-10848.860991628544,-5181.086690802323,2316.6129463597345,1354.0920458341895,-8265.093753212375,-4449.204394691868,1770.257949829101,752.9635178415399,2002.7788061844676,-3069.1372720818767,-11075.797833894427,-9996.891021728512,-12539.813393040704,-17344.2614705939,-7688.183533517936,-2812.209882234272,-1244.4822411788136,-8413.979881688167,-5006.225485550729
-8339.44270485326,-11060.049659327457,-7485.7159664756355,1947.1268904836552,23.528149253443665,-25594.98736732884,-17840.17211512515,-2252.4908969276826,718.5810490658408,-1004.7460857190584,-8402.309919658459,-3252.7823197214225,1954.0912226626745,-745.7482187371504,-10848.296316046462,-5179.706372712787,2317.9305227179275,1354.34301275956,-8263.148759540758,-4447.698593139648,1771.8264931126644,753.46545169228,2002.4650975277548,-3066.6903445595185,-11073.978323685495,-9995.447961907636,-12540.001618234732,-17343.69679501182,-7686.677731965715,-2813.088266473067,-1267.8849069695723,-8407.893933747942,-5007.919512296978
-8338.75254580849,-11060.237884521483,-7484.398390117443,1947.8170495284232,22.775248477333463,-25594.98736732884,-17838.85453876696,-2251.612512688888,718.6437907971833,-1004.7460857190584,-8400.615892912212,-3252.5313527960525,1954.1539643940168,-745.2462848864102,-10846.665031031558,-5179.016213668019,2318.8716486880653,1355.0331718043276,-8261.45473279451,-4446.569241975481,1773.018586008172,753.9046438116776,2003.2179983038648,-3065.3100264699838,-11072.911714252672,-9995.51070363898,-12540.378068622787,-17342.065509996915,-7684.795480025442,-2813.0255247417244,-1291.0366058349607,-8405.196039300214,-5009.927247699938
-8339.128996196545,-11060.614334909538,-7482.955330296566,1947.8170495284232,23.02621540270353,-25595.301075985557,-17838.41534664756,-2250.3576780620374,718.2045986777857,-1004.5578605250308,-8399.172833091334,-3252.594094527394,1953.777514005962,-744.8070927670126,-10845.347454673363,-5179.141697130704,2319.0598738820927,1356.2252646998354,-8260.890057212428,-4446.255533318769,1773.3322946648848,754.2810941997326,2005.0375085127976,-3066.000185514751,-11072.598005595957,-9995.761670564349,-12541.507419786954,-17340.93615883275,-7683.477903667248,-2813.715683786492,-1315.6313645212272,-8407.015549509148,-5010.931115401418
-8340.634797748764,-11061.11626876028,-7483.457264147307,1947.6288243343956,23.59089098478618,-25595.928493298976,-17839.419214349044,-2249.855744211297,716.8870223195928,-1005.185277838456,-8399.486541748049,-3253.096028378135,1952.9618714985088,-745.4345100804378,-10846.163097180815,-5179.51814751876,2318.3069731059827,1356.4762316252054,-8260.701832018398,-4446.631983706825,1773.2068112021996,753.841902080335,2005.1002502441404,-3066.8785697535463,-11072.911714252672,-9995.134253250924,-12543.326929995887,-17341.50083441483,-7683.666128861277,-2815.6606774581105,-1346.1865876850327,-8411.658437628494,-5011.997724834241
-8342.015115838301,-11062.1828781931,-7485.151290893554,1947.5660826030528,23.33992405941612,-25596.93236100046,-17841.61517494603,-2250.545903256065,714.8792869166323,-1007.0047880473888,-8400.86685983758,-3253.7861874229025,1951.9580037970288,-747.3167620207133,-10848.923733359889,-5179.831856175472,2316.6756880910766,1354.7194631476148,-8259.94893124229,-4447.322142751593,1772.5793938887743,751.9596501400595,2000.457362124794,-3066.815828022204,-11074.542999267576,-9995.51070363898,-12545.209181936165,-17344.19872886256,-7685.297413876181,-2818.672280562551,-1381.572924162212,-8416.113100553814,-5015.009327938682
-8342.956241808439,-11063.68867974532,-7485.966933401008,1947.5033408717104,22.58702328330592,-25597.8734869706,-17843.87387727436,-2251.42428749486,713.8754192151521,-1008.5105895996091,-8401.055085031609,-3253.8489291542446,1951.7697786030012,-748.4461131848785,-10850.24130971808,-5179.76911444413,2315.922787314967,1352.7744694759967,-8259.196030466179,-4447.322142751593,1771.7010096499791,750.077398199784,1994.4968976472553,-3067.0667949475737,-11077.052668521275,-9997.957631161338,-12545.773857518245,-17347.210331967002,-7686.238539846318,-2821.1192080849087,-1413.3202402215254,-8417.744385568718,-5018.271897968492
-8344.399301629317,-11065.006256103512,-7485.778708206979,1947.440599140368,22.649765014648438,-25598.187195627306,-17845.128711901212,-2251.6752544202295,714.8792869166323,-1008.6988147936368,-8399.737508673414,-3253.096028378135,1952.6481628417969,-748.0696627968235,-10848.986475091231,-5179.392664056074,2316.9893967477897,1352.5235025506267,-8258.945063540808,-4446.381016781456,1771.5127844559515,749.8891730057564,1992.175453587582,-3066.815828022204,-11078.056536222755,-9999.77714137027,-12545.271923667504,-17347.775007549084,-7686.0503146522915,-2821.9975923237043,-1434.9661375346934,-8417.869869031403,-5020.154149908768
-8345.21494413677,-11065.759156879623,-7485.7159664756355,1947.25237394634,23.46540752210115,-25597.936228701936,-17845.31693709524,-2251.5497709575448,716.3223467375102,-1008.5733313309516,-8398.357190583878,-3252.9705449154494,1953.4010636179069,-747.9441793341385,-10849.73937586734,-5178.76524674265,2317.867780986585,1352.9626946700243,-8258.254904496041,-4445.50263254266,1772.2029435007191,750.328365125154,1993.0538378263768,-3065.2472847386407,-11076.61347640188,-9998.58504847476,-12545.899340980928,-17346.394689459546,-7686.364023309005,-2822.2485592490743,-1451.2162459524052,-8420.50502174779,-5022.161885311729
-8344.148334703945,-11066.072865536336,-7486.217900326376,1946.8759235582847,23.653632716128698,-25597.24606965717,-17845.31693709524,-2251.6752544202295,716.3223467375102,-1009.2007486443767,-8396.663163837633,-3253.6607039602177,1953.2128384238792,-749.2617556923313,-10854.507747449372,-5178.137829429224,2317.24036367316,1352.398019087942,-8256.121685630396,-4444.937956960577,1772.9558442768296,750.0146564684414,1994.0577055278573,-3063.114065872995,-11074.66848273026,-9996.200862683747,-12548.095301577916,-17343.571311549134,-7687.49337447317,-2822.8759765624995,-1467.842804758172,-8423.51662485223,-5023.981395520662
-8343.20720873381,-11066.88850804379,-7486.908059371144,1945.6838306627772,22.085089432565788,-25597.24606965717,-17846.007096140005,-2252.302671733655,715.0675121106599,-1010.8947753906248,-8394.969137091384,-3254.099896079615,1951.7697786030012,-751.3949745579768,-10859.276119031403,-5177.886862503854,2315.922787314967,1350.453025416324,-8253.862983302068,-4444.436023109837,1772.767619082802,748.8853053042761,1993.8067386024877,-3061.9219729774873,-11074.166548879522,-9995.322478444952,-12549.789328324166,-17339.869549399926,-7688.685467368677,-2824.5072615774047,-1482.7753368176911,-8422.073565031353,-5024.232362446032
-8344.148334703945,-11068.457051327352,-7487.786443609939,1943.9270621851867,19.26171152215255,-25599.128321597447,-17847.3246724982,-2253.4320228978204,713.2480019017269,-1013.090735987613,-8394.278978046617,-3254.037154348273,1949.4483345433284,-753.7164186176501,-10860.781920583624,-5178.012345966539,2314.856177882144,1347.817872699938,-8253.737499839379,-4444.122314453124,1771.575526187294,747.6304706774259,1993.0538378263768,-3062.4866485595694,-11074.731224461604,-9995.949895758376,-12549.036427548055,-17337.42262187757,-7689.814818532842,-2826.0130631296256,-1492.3120799817536,-8419.061961926913,-5023.416719938579
-8345.842361450195,-11069.460919028832,-7488.978536505447,1942.358518901624,16.06188322368421,-25601.763474313837,-17847.889348080284,-2254.875082718698,711.1775247674238,-1014.659279271176,-8395.031878822727,-3254.4763464676703,1947.6288243343956,-755.661412289268,-10859.338860762744,-5178.388796354594,2314.103277106034,1345.9356207596627,-8255.933460436368,-4444.122314453124,1770.1324663664163,746.9403116326582,1993.8067386024877,-3063.9924501117903,-11074.919449655632,-9996.07537922106,-12546.903208682408,-17336.293270713402,-7690.25401065224,-2824.8837119654604,-1493.1277224892062,-8418.434544613487,-5022.475593968441
-8347.410904733759,-11069.90011114823,-7490.358854594982,1941.291909468801,13.426730507298519,-25603.833951448138,-17847.7638646176,-2256.067175614206,709.0443059017783,-1015.412180047286,-8396.537680374948,-3255.919406288548,1946.5622149015724,-756.6652799907483,-10857.142900165756,-5179.204438862047,2313.224892867239,1345.5591703716075,-8258.192162764697,-4444.247797915808,1769.630532515676,746.6893447072881,1996.2536661248453,-3064.4943839625307,-11073.66461502878,-9994.695061131526,-12546.275791368984,-17335.101177817894,-7689.940301995528,-2822.562267905787,-1483.151787205746,-8417.80712730006,-5021.659951460988
-8348.665739360606,-11070.339303267629,-7491.4882057591485,1940.789975618061,12.799313193873354,-25604.775077418275,-17847.889348080284,-2256.694592927631,708.1031799316405,-1015.663146972656,-8397.227839419713,-3257.299724378084,1946.1230227821748,-756.6025382594057,-10855.825323807563,-5179.76911444413,2312.848442479184,1346.2493294163753,-8257.690228913958,-4443.871347527755,1770.0697246350735,746.8775699013157,1998.4496267218335,-3062.6748737535977,-11071.029462312395,-9992.185391877823,-12547.530625995836,-17333.53263453433,-7689.563851607472,-2823.2524269505548,-1464.5802347283611,-8415.924875359786,-5022.224627043072
-8349.042189748663,-11070.527528461656,-7491.739172684518,1940.6017504240333,14.242373014751232,-25605.026044343645,-17848.203056736995,-2256.9455598530008,708.4168885883531,-1015.286696584601,-8396.914130763003,-3258.303592079564,1946.3739897075448,-756.1633461400081,-10855.448873419507,-5179.76911444413,2313.350376329924,1346.8767467298003,-8256.058943899054,-4443.3694136770155,1770.5089167544716,747.1285368266857,1998.637851915861,-3060.7298800819794,-11068.958985178091,-9990.805073788291,-12548.785460622687,-17333.156184146275,-7690.065785458211,-2825.0091954281447,-1441.5540193256577,-8416.175842285154,-5022.852044356496
-8349.167673211346,-11070.527528461656,-7492.115623072573,1940.4135252300057,15.936399760999176,-25605.4024947317,-17848.203056736995,-2257.6357188977686,708.9188224390932,-1014.4710540771484,-8397.541548076428,-3259.6211684377568,1946.9386652896276,-755.661412289268,-10855.26064822548,-5179.580889250104,2313.789568449321,1347.2531971178555,-8256.372652555767,-4443.3694136770155,1770.6971419484987,747.5677289460833,1998.135918065121,-3060.9181052760073,-11068.958985178091,-9991.369749370371,-12549.601103130139,-17336.795204564143,-7692.073520861173,-2823.8171025326374,-1416.1436181319386,-8420.442280016447,-5021.785434923673
-8349.104931480006,-11070.65301192434,-7492.868523848683,1940.4762669613483,17.44220131321957,-25605.527978194383,-17847.889348080284,-2258.514103136564,709.4834980211759,-1013.7808950323806,-8398.984607897308,-3260.311327482524,1947.7543077970804,-754.6575445877877,-10855.323389956824,-5179.392664056074,2314.103277106034,1347.692389237253,-8257.752970645299,-4443.620380602384,1771.1363340678963,748.5088549162211,1998.3241432591487,-3061.9219729774873,-11069.774627685543,-9992.373617071853,-12549.475619667452,-17343.132119429734,-7695.085123965614,-2821.370175010279,-1387.7843555651211,-8424.708717747737,-5020.028666446083
-8347.661871659126,-11070.590270193,-7492.617556923314,1941.166426006116,18.822519402754928,-25604.084918373508,-17847.261930766857,-2258.702328330592,710.4873657226561,-1013.1534777189556,-8400.051217330129,-3259.4956849750715,1948.0680164537928,-753.5281934236226,-10855.95080727025,-5179.4554057874175,2314.479727494089,1347.6296475059107,-8258.631354884097,-4443.745864065068,1771.2618175305815,749.1990139609889,1997.1947920949835,-3063.23954933568,-11071.343170969109,-9994.0676438181,-12547.091433876436,-17348.46516659385,-7697.218342831259,-2820.2408238461135,-1355.5351056550678,-8426.402744493986,-5017.832705849095
-8345.21494413677,-11070.088336342258,-7491.29998056512,1941.9820685135687,19.449936716180098,-25601.637990851148,-17846.8854803788,-2258.3886196738795,711.2402664987663,-1012.714285599558,-8399.988475598788,-3258.0526251541937,1947.440599140368,-752.5243257221421,-10856.26451592696,-5180.082823100843,2314.7934361508014,1346.814004998458,-8259.007805272151,-4443.620380602384,1770.822625411184,748.8225635729337,1994.62238110994,-3064.368900499845,-11072.911714252672,-9996.01263748972,-12543.954347309313,-17351.100319310237,-7695.963508204408,-2820.491790771484,-1325.6700415360299,-8428.724188553657,-5015.511261789422
-8344.963977211399,-11070.65301192434,-7490.986271908407,1941.354651200144,18.257843820672285,-25600.759606612355,-17847.512897692228,-2258.576844867907,711.1147830360812,-1012.9025107935854,-8399.674766942073,-3257.3624661094254,1946.6249566329152,-752.273358796772,-10855.448873419507,-5180.710240414268,2314.605210956774,1346.1238459536903,-8259.258772197521,-4443.5576388710415,1770.257949829101,748.0696627968235,1994.0577055278573,-3063.866966649105,-11072.6607473273,-9995.824412295693,-12544.268055966024,-17350.535643728155,-7692.763679905941,-2822.123075786389,-1305.404462312397,-8431.924016852126,-5015.699486983449
-8347.97558031584,-11072.033330013875,-7492.429331729287,1939.4096575285257,15.87365802965666,-25601.70073258249,-17848.57950712505,-2259.329745644017,709.7972066778884,-1013.341702912983,-8399.862992136099,-3257.6134330347963,1946.5622149015724,-752.7752926475123,-10853.629363210575,-5180.710240414268,2313.915051912006,1346.2493294163753,-8259.384255660207,-4443.620380602384,1770.1324663664163,747.6932124087683,1996.190924393503,-3062.2984233655425,-11071.217687506423,-9994.130385549443,-12548.534493697316,-17347.524040623714,-7691.383361816404,-2823.2524269505548,-1294.2364341334292,-8431.610308195415,-5017.769964117752
-8351.23815034565,-11072.911714252672,-7493.809649818821,1937.7156307822777,13.363988775956003,-25603.3320175974,-17848.767732319076,-2260.0826464201273,707.5385043495579,-1013.5299281070106,-8400.302184255499,-3257.4252078407685,1947.1896322149976,-753.46545169228,-10851.872594732984,-5180.27104829487,2313.350376329924,1347.0022301924855,-8259.133288734834,-4443.871347527755,1770.1952080977587,747.6932124087683,1998.4496267218335,-3061.4200391267473,-11070.778495387027,-9993.189259579307,-12552.048030652497,-17344.386954056587,-7692.136262592515,-2822.687751368472,-1286.080009058902,-8427.469353926808,-5018.773831819232
-8351.99105112176,-11073.350906372068,-7493.872391550163,1937.5901473195927,11.858187223735605,-25605.21426953767,-17848.57950712505,-2259.957162957442,706.1581862600225,-1013.6554115696956,-8400.427667718184,-3256.5468236019733,1947.25237394634,-754.0301272743627,-10851.182435688219,-5179.831856175472,2313.350376329924,1347.5041640432255,-8258.882321809466,-4444.185056184467,1770.320691560444,747.6304706774259,1999.3907526919716,-3061.671006052117,-11071.719621357164,-9993.502968236018,-12552.236255846525,-17342.567443847656,-7692.387229517884,-2821.9975923237043,-1275.7903651187291,-8423.328399658203,-5018.0836727744645
-8349.79509052477,-11073.037197715355,-7492.743040385998,1939.346915797183,12.67382973118832,-25605.90442858244,-17848.454023662365,-2258.514103136564,707.0993122301603,-1013.2789611816404,-8399.423800016704,-3255.291988975123,1947.1268904836552,-753.7791603489925,-10851.433402613588,-5179.078955399362,2314.0405353746914,1348.1315813566507,-8259.133288734834,-4444.122314453124,1770.3834332917863,748.0696627968235,1999.4534944233135,-3061.9847147088294,-11072.786230789987,-9994.381352474815,-12550.040295249535,-17343.63405328048,-7691.006911428351,-2821.2446915475944,-1264.3086282830488,-8421.069697329873,-5016.70335468493
-8345.528652793482,-11070.339303267629,-7490.421596326325,1942.358518901624,15.936399760999176,-25603.89669317948,-17847.199189035513,-2255.8789504201786,709.7972066778884,-1011.77315962942,-8397.855256733139,-3253.22151184082,1948.6954337672184,-752.1478753340871,-10850.868727031504,-5177.573153847142,2315.1698865388566,1350.0765750282687,-8259.44699739155,-4442.992963288959,1771.073592336554,749.5127226177015,2000.0809117367392,-3061.7964895148025,-11072.786230789987,-9994.506835937498,-12546.526758294354,-17348.025974474454,-7688.309016980621,-2819.6134065326887,-1254.8346268503287,-8421.132439061214,-5015.574003520765
-8341.011248136821,-11065.445448222912,-7487.598218415912,1945.307380274722,20.140095760947776,-25600.44589795564,-17844.501294587786,-2252.741863853053,712.4951011256168,-1009.1380069130344,-8396.663163837633,-3251.2137764378595,1951.4560699462888,-749.5754643490438,-10848.923733359889,-5175.879127100894,2316.3619794343645,1352.7117277446544,-8259.133288734834,-4441.612645199424,1772.767619082802,751.2694910952919,2001.9631636770143,-3061.169072201377,-11071.719621357164,-9993.440226504676,-12542.009353637692,-17356.87255859375,-7685.171930413496,-2817.417445935701,-1248.7486789101047,-8424.834201210422,-5014.319168893913
-8339.066254465202,-11062.308361655785,-7486.468867251747,1946.4994731702295,23.02621540270353,-25598.814612940732,-17842.932751304223,-2251.2360623008326,713.8754192151521,-1007.632205360814,-8396.85138903166,-3250.962809512489,1952.8991297671664,-747.5049872147408,-10847.857123927064,-5175.565418444181,2316.9893967477897,1354.1547875655324,-8259.321513928864,-4441.5499034680815,1773.6460033215972,752.5243257221421,2003.8454156172895,-3060.9181052760073,-11071.15494577508,-9992.31087534051,-12540.127101697419,-17368.166070235402,-7685.736605995579,-2817.480187667043,-1245.4233671489515,-8427.657579120836,-5012.687883879009
-8341.387698524875,-11065.006256103512,-7488.351119192022,1944.9309298866672,22.712506745990954,-25600.696864881007,-17844.564036319127,-2252.4281551963404,713.6871940211245,-1009.326232107062,-8398.60815750925,-3252.656836258737,1951.7697786030012,-747.5049872147408,-10849.174700285255,-5176.945736533717,2316.6756880910766,1353.5273702521072,-8260.513606824372,-4442.679254632248,1772.0774600380344,752.5243257221421,2004.09638254266,-3062.110198171515,-11071.65687962582,-9992.56184226588,-12544.64450635408,-17369.92283871299,-7693.328355488023,-2821.4956584729644,-1242.6627309698806,-8425.649843717874,-5011.746757908872
-8345.403169330797,-11071.029462312395,-7491.4882057591485,1942.4212606329663,20.328320954975325,-25604.14766010485,-17847.073705572828,-2254.435890599301,712.9342932450144,-1012.4005769428452,-8400.113959061471,-3254.413604736328,1949.6993014686984,-749.1362722296462,-10851.307919150904,-5177.635895578484,2315.985529046309,1352.2725356252568,-8260.890057212428,-4443.306671945672,1769.7560159783611,751.8341666773744,2003.59444869192,-3063.0513241416525,-11072.096071745218,-9993.189259579307,-12551.922547189812,-17354.488372802734,-7702.174939607318,-2825.1346788908304,-1238.960968820672,-8424.144042165655,-5011.746757908872
-8347.159937808385,-11074.919449655632,-7492.868523848683,1941.1036842747735,17.881393432617184,-25606.406362433176,-17847.70112288625,-2255.565241763466,711.6167168868216,-1014.2828288831208,-8399.800250404758,-3254.852796855725,1948.2562416478208,-751.1440076326068,-10852.437270315068,-5177.008478265059,2314.981661344829,1350.8294758043787,-8259.44699739155,-4442.992963288959,1768.3129561574833,750.7675572445517,2003.09251484118,-3062.925840678968,-11072.974455984015,-9993.628451698703,-12554.808666831568,-17333.28166760896,-7704.872834055046,-2824.820970234118,-1235.3846901341487,-8426.402744493986,-5011.558532714843
-8346.595262226305,-11075.170416581002,-7491.550947490489,1941.166426006116,15.999141492341693,-25607.159263209287,-17846.822738647457,-2255.6907252261512,710.1736570659436,-1015.0984713905736,-8397.855256733139,-3253.9744126169303,1947.8170495284232,-752.9007761101972,-10851.935336464328,-5176.067352294921,2314.0405353746914,1349.3864159835011,-8257.43926198859,-4442.616512900904,1767.9365057694283,749.5127226177015,2001.9631636770143,-3062.5493902909125,-11074.166548879522,-9994.0676438181,-12552.361739309208,-17320.607837877775,-7700.606396323755,-2822.625009637129,-1232.6867956864205,-8428.849672016344,-5010.052731162623
-8345.277685868112,-11073.852840222808,-7489.104019968131,1942.295777170281,14.995273790861429,-25607.159263209287,-17845.944354408664,-2255.0005661813834,709.6717232152033,-1015.412180047286,-8395.34558747944,-3252.3431276020247,1948.193499916478,-754.1556107370477,-10850.555018374793,-5175.565418444181,2313.852310180664,1348.3198065506783,-8256.309910824424,-4442.240062512848,1768.6894065455383,748.7598218415912,2000.5828455874791,-3061.7964895148025,-11073.852840222808,-9993.628451698703,-12548.095301577916,-17318.662844206156,-7694.394964920846,-2821.0564663535665,-1230.9927689401725,-8426.151777568615,-5007.856770565635
-8344.085592972604,-11072.221555207903,-7487.911927072626,1943.7388369911596,15.49720764160156,-25606.90829628392,-17845.379678826583,-2253.996698479903,710.1109153346009,-1015.286696584601,-8393.714302464534,-3251.276518169202,1948.444466841848,-754.8457697818153,-10849.551150673313,-5175.251709787469,2314.5424692254314,1348.0688396253083,-8255.870718705028,-4441.926353856136,1769.2540821276211,748.8225635729337,2000.5201038561368,-3060.478913156609,-11072.033330013875,-9992.185391877823,-12545.585632324215,-17322.113639429994,-7691.069653159693,-2819.6134065326887,-1230.5535768207749,-8419.752120971678,-5006.72741940147
-8343.709142584546,-11071.029462312395,-7488.664827848735,1944.4289960359267,17.316717850534538,-25606.782812821235,-17845.69338748329,-2253.4320228978204,711.1775247674238,-1014.5337958084908,-8393.965269389904,-3251.3392599005447,1948.3817251105056,-755.0967367071854,-10849.990342792713,-5175.690901906865,2315.2326282701993,1348.2570648193357,-8255.996202167711,-4442.616512900904,1768.626664814196,749.1362722296462,2001.3357463635891,-3061.043588738692,-11071.217687506423,-9992.12265014648,-12545.899340980928,-17327.383944862762,-7691.25787835372,-2818.9859892192635,-1230.5535768207749,-8416.928743061266,-5007.856770565635
-8343.960109509919,-11070.025594610916,-7489.480470356188,1944.7427046926396,19.826387104235195,-25606.218137239157,-17846.258063065376,-2253.243797703793,712.3696176629317,-1013.2789611816404,-8395.157362285412,-3252.280385870682,1948.8209172299032,-754.9085115131578,-10850.994210494193,-5177.008478265059,2314.7306944194593,1348.5707734760483,-8257.502003719932,-4444.373281378495,1767.7482805754007,748.8853053042761,2001.1475211695615,-3064.9963178132707,-11073.66461502878,-9995.134253250924,-12546.777725219725,-17333.344409340305,-7692.136262592515,-2819.8016317267166,-1228.985033537212,-8419.312928852281,-5010.115472893965
-8343.45817565918,-11069.021726909436,-7489.104019968131,1945.24463854338,22.147831163908304,-25605.088786074983,-17846.509029990746,-2253.118314241108,712.9970349763569,-1012.2123517488176,-8396.725905568974,-3253.7234456915603,1949.636559737356,-754.5320611251027,-10851.621627807615,-5178.827988473992,2313.350376329924,1348.5707734760483,-8260.45086509303,-4446.381016781456,1767.2463467246605,748.257887990851,1999.5162361546563,-3069.70194766396,-11077.742827566044,-9999.149724056846,-12546.338533100328,-17339.304873817844,-7692.449971249229,-2820.9937246222244,-1227.1027815969364,-8423.642108314914,-5011.495790983501
-8341.199473330846,-11067.327700163187,-7487.786443609939,1946.3112479762024,24.53201695492393,-25603.018308940686,-17845.756129214635,-2252.616380390368,714.1263861405221,-1010.8947753906248,-8397.478806345085,-3254.72731339304,1950.640427438836,-753.4027099609373,-10851.370660882247,-5180.208306563527,2313.036667673211,1349.1354490581307,-8262.521342227332,-4447.322142751593,1767.2463467246605,748.8853053042761,1998.637851915861,-3071.584199604235,-11079.436854312293,-10000.718267340408,-12544.769989816765,-17344.19872886256,-7692.638196443254,-2820.868241159539,-1228.3576162237869,-8427.28112873278,-5011.182082326788
-8338.564320614463,-11065.1317395662,-7486.719834177116,1947.6915660657376,26.85346101459704,-25600.069447567585,-17843.999360737045,-2252.114446539628,716.4478302001952,-1008.5105895996091,-8397.3533228824,-3255.1037637810955,1951.8952620656864,-750.9557824385791,-10849.990342792713,-5180.710240414268,2314.354244031404,1350.954959267064,-8262.772309152702,-4447.384884482935,1767.8737640380857,751.2067493639493,2000.1436534680813,-3071.0822657534945,-11078.244761416783,-9999.463432713555,-12543.389671727227,-17345.64178868344,-7692.889163368625,-2819.676148264032,-1230.804543746145,-8429.602572792453,-5009.23708865517
-8336.80755213687,-11063.500454551295,-7486.28064205772,1948.946400692588,28.2337791041324,-25597.24606965717,-17841.8661418714,-2251.8634796142574,719.0829829165809,-1005.6244699578536,-8397.416064613742,-3255.354730706465,1953.4010636179069,-747.8186958714534,-10847.668898733038,-5180.396531757555,2316.2992377030214,1353.652853714792,-8262.709567421358,-4447.071175826223,1769.128598664936,753.841902080335,2003.6571904232624,-3070.5803319027546,-11075.546866969058,-9997.0165051912,-12542.88773787649,-17342.818410773023,-7692.51271298057,-2817.9821215177835,-1229.361483925267,-8428.912413747687,-5006.790161132812
-8335.552717510021,-11063.249487625924,-7485.966933401008,1949.9502683940684,28.296520835474915,-25594.610916940783,-17840.10937339381,-2251.6752544202295,721.1534600508838,-1003.491251092208,-8397.165097688372,-3254.852796855725,1954.9068651701273,-744.8698344983552,-10845.22197121068,-5179.392664056074,2318.24423137464,1356.3507481625204,-8262.270375301963,-4446.0045663934,1771.5127844559515,756.2888296026931,2008.174595079924,-3069.4509807385894,-11071.782363088507,-9993.691193430046,-12542.448545757092,-17339.17939035516,-7690.881427965665,-2816.2880947715353,-1225.6597217760586,-8424.395009091026,-5005.911776894017
-8335.427234047336,-11064.316097058747,-7486.531608983089,1949.887526662726,26.66523582056949,-25593.41882404528,-17839.732923005755,-2252.114446539628,720.8397513941713,-1003.616734554893,-8396.161229986892,-3254.037154348273,1955.22057382684,-743.9287085282173,-10844.092620046515,-5178.702505011307,2318.8089069567222,1357.5428410580282,-8261.580216257194,-4445.00069869192,1773.6460033215972,757.3554390355158,2010.9979729903368,-3067.945179186369,-11069.460919028832,-9991.495232833058,-12542.072095369036,-17338.05003919099,-7689.375626413444,-2815.7234191894527,-1224.0284367611532,-8419.940346165706,-5007.480320177579
-8336.682068674185,-11065.759156879623,-7488.225635729337,1948.444466841848,23.71637444747121,-25594.548175209446,-17840.36034031918,-2253.5575063605056,718.0791152151006,-1005.436244763826,-8395.157362285412,-3253.911670885588,1954.1539643940168,-745.4972518117803,-10844.469070434568,-5178.890730205335,2317.867780986585,1356.664456819233,-8261.642957988537,-4445.251665617289,1773.7714867842824,756.2260878713506,2009.178462781404,-3068.196146111739,-11071.594137894477,-9993.31474304199,-12541.19371113024,-17338.614714773077,-7689.375626413444,-2816.601803428248,-1222.3344100149052,-8418.183577688114,-5009.362572117855
-8338.313353689091,-11066.700282849763,-7489.104019968131,1946.3739897075448,21.33218865645559,-25597.371553119858,-17840.799532438577,-2255.188791375411,715.5067042300575,-1007.2557549727588,-8395.471070942125,-3254.539088199013,1952.9618714985088,-748.1951462595085,-10845.78664679276,-5179.078955399362,2317.114880210475,1355.0331718043276,-8261.95666664525,-4445.816341199373,1771.8892348440068,754.0928690057051,2004.0336408113171,-3069.0117886191915,-11075.860575625768,-9997.267472116568,-12539.248717458624,-17338.92842342979,-7690.065785458211,-2817.5429293983857,-1217.566038432874,-8419.312928852281,-5010.178214625308
-8339.881896972656,-11066.88850804379,-7489.29224516216,1944.554479498612,20.51654614900288,-25600.069447567585,-17840.61130724455,-2256.3181425395765,714.4400947972347,-1008.4478478682668,-8396.976872494346,-3255.417472437808,1952.1462289910564,-750.1401399311266,-10847.292448344982,-5179.141697130704,2317.052138479132,1353.903820640162,-8262.333117033306,-4445.690857736688,1769.6932742470187,752.6498091848271,1999.8299448113687,-3068.760821693821,-11078.1192779541,-9999.5261744449,-12538.244849757142,-17340.18325805664,-7690.630461040296,-2817.480187667043,-1213.676051089638,-8423.26565792686,-5010.178214625308
-8341.136731599505,-11066.763024581103,-7489.794179012899,1943.6760952598167,20.767513074372943,-25601.575249119807,-17840.925015901263,-2256.506367733604,714.3773530658922,-1009.0125234503492,-8398.545415777908,-3255.793922825864,1951.7070368716588,-750.6420737818665,-10847.982607389747,-5179.329922324732,2316.6756880910766,1353.652853714792,-8263.211501272099,-4445.50263254266,1768.9403734709083,752.6498091848271,1999.3907526919716,-3068.5098547684515,-11077.742827566044,-9999.149724056846,-12540.440810354132,-17342.692927310334,-7691.383361816404,-2816.8527703536183,-1215.621044761256,-8426.967420076067,-5009.98998943128
-8341.95237410696,-11067.076733237818,-7490.421596326325,1943.4878700657891,21.33218865645559,-25602.328149895915,-17843.120976498252,-2255.6279834948086,714.6283199912623,-1009.702682495117,-8399.172833091334,-3254.915538587068,1951.330586483604,-750.5793320505242,-10848.48454124049,-5179.51814751876,2316.1737542403366,1353.5901119834496,-8263.96440204821,-4445.941824662057,1769.3168238589635,753.089001304225,2000.6455873188215,-3068.447113037109,-11076.927185058592,-9997.706664235968,-12544.330797697367,-17344.826146175987,-7691.885295667145,-2817.6056711297283,-1219.511032104492,-8427.092903538753,-5010.240956356651
-8342.51704968904,-11067.390441894528,-7490.860788445723,1943.7388369911596,22.39879808927837,-25602.579116821285,-17845.88161267732,-2254.122181942588,715.1302538420024,-1010.4555832712272,-8398.733640971934,-3252.7823197214225,1951.4560699462888,-750.453848587839,-10849.73937586734,-5178.953471936677,2315.922787314967,1353.2764033267372,-8263.650693391497,-4446.255533318769,1770.0697246350735,753.2144847669099,2000.5828455874791,-3068.196146111739,-11076.801701595907,-9997.079246922542,-12546.840466951067,-17346.959365041632,-7692.073520861173,-2819.2369561446335,-1219.8874824925472,-8425.649843717874,-5010.805631938732
-8342.015115838301,-11066.386574193048,-7490.923530177066,1945.1191550806948,24.34379176089638,-25601.512507388463,-17846.06983787135,-2252.114446539628,716.5733136628803,-1010.079132883172,-8397.60428980777,-3249.7707166169816,1952.9618714985088,-749.1990139609889,-10850.680501837478,-5177.008478265059,2316.6756880910766,1353.7155954461348,-8262.584083958674,-4445.50263254266,1771.2618175305815,753.7164186176501,2000.2691369307663,-3067.443245335629,-11076.487992939195,-9996.828279997171,-12548.095301577916,-17348.025974474454,-7692.010779129831,-2819.4251813386613,-1217.7542636269015,-8425.775327180558,-5010.680148476048
-8340.44657255474,-11064.441580521432,-7489.982404206927,1947.3778574090247,25.975076775801806,-25598.94009640342,-17843.62291034899,-2250.294936330695,718.7065325285257,-1008.3223644055817,-8396.223971718233,-3247.0728221692534,1954.7813817074425,-747.0657950953432,-10849.613892404655,-5174.373325548673,2318.118747911955,1355.0331718043276,-8261.517474525854,-4443.934089259097,1772.767619082802,754.8457697818153,2000.6455873188215,-3066.4393776341485,-11075.233158312343,-9995.761670564349,-12549.41287793611,-17344.888887907327,-7691.697070473118,-2817.8566380550983,-1217.315071507504,-8426.214519299958,-5009.676280774568
-8338.564320614463,-11062.559328581156,-7488.351119192022,1949.1973676179584,26.41426889519942,-25596.304943687035,-17840.736790707237,-2248.851876509817,720.3378175434312,-1006.3773707339636,-8395.157362285412,-3245.316053691663,1955.9107328716077,-745.4972518117803,-10846.602289300215,-5172.365590145713,2319.436324270148,1356.413489893863,-8259.697964316918,-4441.926353856136,1774.3361623663648,756.1633461400081,2002.0259054083567,-3064.557125693873,-11072.472522133272,-9993.189259579307,-12549.099169279396,-17339.74406593724,-7691.25787835372,-2815.597935726768,-1218.7581313283815,-8425.02242640445,-5007.856770565635
-8338.376095420435,-11063.061262431896,-7488.225635729337,1948.5699503045328,24.34379176089638,-25596.43042714972,-17840.548565513207,-2248.9773599725017,719.459433304636,-1006.8793045847038,-8395.34558747944,-3246.194437930458,1954.7813817074425,-745.9991856625205,-10845.159229479335,-5172.55381533974,2318.8089069567222,1356.0997812371504,-8258.129421033356,-4441.110711348684,1774.9635796797902,756.1633461400081,2003.4689652292348,-3062.2984233655425,-11069.837369416888,-9990.679590325606,-12547.216917339125,-17338.301006116362,-7690.944169697008,-2815.7234191894527,-1220.4521580746296,-8423.579366583572,-5007.543061908922
-8339.25447965923,-11065.570931685595,-7488.727569580077,1946.7504400956,21.018479999743008,-25598.50090428402,-17842.61904264751,-2250.169452868009,716.6987971255653,-1009.0752651816917,-8395.533812673468,-3248.8923323781864,1952.1462289910564,-748.257887990851,-10846.288580643502,-5173.9968751606175,2316.550204628392,1354.1547875655324,-8257.43926198859,-4441.5499034680815,1774.2734206350224,754.9085115131578,2003.59444869192,-3061.4827808580894,-11069.64914422286,-9990.491365131578,-12544.89547327945,-17340.308741519322,-7689.438368144787,-2818.295830174496,-1220.6403832686572,-8422.387273688064,-5009.48805558054
-8339.568188315943,-11067.076733237818,-7487.723701878597,1946.3112479762024,19.88912883557771,-25599.19106332879,-17843.183718229593,-2250.169452868009,715.5694459614,-1009.577199032432,-8394.906395360042,-3250.5863591244342,1950.7659109015208,-749.7636895430713,-10847.355190076323,-5174.749775936729,2315.358111732884,1352.899952938682,-8257.502003719932,-4441.863612124794,1773.269552933542,754.0301272743627,2002.9042896471524,-3062.73761548494,-11071.092204043738,-9992.248133609168,-12543.138704801859,-17341.061642295434,-7687.556116204512,-2819.8016317267166,-1219.3855486418067,-8421.383405986584,-5010.115472893965
-8340.383830823395,-11066.574799387075,-7486.719834177116,1946.7504400956,20.89299653705797,-25598.87735467208,-17841.928883602744,-2249.165585166529,716.5733136628803,-1008.3223644055817,-8394.906395360042,-3250.7745843184616,1951.142361289576,-749.7636895430713,-10847.48067353901,-5174.875259399413,2316.2992377030214,1352.9626946700243,-8258.505871421412,-4441.7381286621085,1772.767619082802,754.2183524683902,2003.0297731098372,-3063.6787414550777,-11070.90397884971,-9992.812809191251,-12544.268055966024,-17340.18325805664,-7688.246275249278,-2819.487923070004,-1218.5699061343544,-8421.383405986584,-5008.923379998458
-8341.26221506219,-11064.943514372171,-7487.0335428338285,1947.00140702097,22.02234770122327,-25598.94009640342,-17841.050499363948,-2248.7891347784744,717.5771813643605,-1007.381238435444,-8395.659296136153,-3250.460875661749,1952.0207455283717,-749.4499808863587,-10847.606157001695,-5174.938001130756,2317.4913305985297,1353.2136615953943,-8259.070547003494,-4441.236194811368,1773.1440694708572,754.6575445877877,2003.7826738859476,-3061.7964895148025,-11068.708018252722,-9990.805073788291,-12546.965950413753,-17338.991165161133,-7690.442235846269,-2818.6095388312087,-1218.2561974776415,-8421.069697329873,-5008.48418787906
-8341.136731599505,-11063.437712819952,-7487.660960147255,1947.1896322149976,22.837990208675983,-25599.128321597447,-17841.36420802066,-2248.9773599725017,717.514439633018,-1007.3184967041014,-8396.537680374948,-3250.837326049804,1952.7109045731393,-749.5754643490438,-10848.23357431512,-5175.314451518811,2317.554072329872,1353.3391450580796,-8259.44699739155,-4441.173453080026,1774.21067890368,754.9712532445003,2005.1629919754832,-3059.976979305869,-11066.951249775131,-9988.734596653987,-12548.220785040605,-17338.23826438502,-7691.571587010433,-2817.668412861071,-1218.4444226716691,-8420.630505210474,-5009.299830386512
-8340.885764674136,-11063.18674589458,-7487.911927072626,1947.00140702097,23.33992405941612,-25599.25380506013,-17842.17985052811,-2249.730260748612,716.8870223195928,-1007.4439801667864,-8397.165097688372,-3252.092160676654,1952.7736463044816,-749.5754643490438,-10848.986475091231,-5176.067352294921,2316.8011715537623,1353.5273702521072,-8260.325381630344,-4441.989095587479,1775.46551353053,755.1594784385278,2007.1079856471008,-3060.7298800819794,-11066.88850804379,-9988.04443760922,-12548.346268503288,-17339.304873817844,-7691.948037398488,-2816.8527703536183,-1220.5148998059724,-8422.073565031353,-5008.797896535772
-8340.383830823395,-11063.249487625924,-7487.660960147255,1946.9386652896276,24.15556656686883,-25598.187195627306,-17841.677916677374,-2250.7968701814348,717.0752475136204,-1006.6910793906762,-8397.227839419713,-3252.656836258737,1953.0873549611945,-748.8225635729337,-10849.300183747942,-5176.443802682977,2316.424721165707,1354.0920458341895,-8260.576348555715,-4442.616512900904,1776.3438977693252,755.0339949758429,2007.233469109786,-3061.608264320774,-11067.766892282583,-9988.358146265933,-12548.032559846575,-17340.747933638722,-7691.948037398488,-2815.9116443834805,-1221.6442509701376,-8423.955816971627,-5005.409843043277
-8339.379963121915,-11062.559328581156,-7486.908059371144,1947.5660826030528,25.47314292506168,-25594.73640040347,-17839.54469781173,-2250.985095375462,719.0202411852384,-1004.9343109130858,-8397.102355957031,-3251.966677213969,1954.6558982447568,-747.2540202893708,-10848.672766434518,-5175.879127100894,2317.554072329872,1355.2841387296976,-8259.94893124229,-4442.302804244192,1776.7830898887228,754.9085115131578,2005.1002502441404,-3061.4200391267473,-11068.64527652138,-9989.362013967411,-12546.464016563012,-17340.057774593955,-7691.1951366223775,-2814.029392443205,-1219.5737738358343,-8423.893075240285,-5001.770822625411
-8339.317221390573,-11062.371103387128,-7486.657092445775,1947.440599140368,25.786851581774258,-25591.536572105004,-17838.227121453536,-2250.483161524722,721.0907183195415,-1004.1186684056332,-8397.290581151057,-3251.590226825914,1955.97347460295,-746.1246691252054,-10848.23357431512,-5175.690901906865,2319.24809907612,1355.9742977744654,-8259.635222585577,-4441.989095587479,1776.406639500668,754.5320611251027,2002.7160644531248,-3061.608264320774,-11069.64914422286,-9990.930557250975,-12545.083698473476,-17338.802939967103,-7690.693202771637,-2812.7745578163544,-1216.373945537366,-8423.642108314914,-5001.582597431383
-8340.760281211451,-11063.12400416324,-7487.409993221885,1946.1857645135171,24.030083104183795,-25591.34834691097,-17838.980022229644,-2250.8596119127774,720.902493125514,-1004.6833439877156,-8397.102355957031,-3251.966677213969,1955.8479911402649,-746.5011195132606,-10848.296316046462,-5176.130094026264,2319.875516389545,1355.4096221923824,-8260.011672973633,-4441.926353856136,1775.8419639185854,754.2183524683902,2001.3357463635891,-3062.423906828228,-11070.339303267629,-9992.05990841514,-12546.024824443615,-17338.426489579047,-7691.1951366223775,-2813.3392333984366,-1214.052501477693,-8424.269525628339,-5004.029524953741
-8343.45817565918,-11064.065130133376,-7489.229503430817,1944.4289960359267,21.20670519377056,-25593.23059885125,-17840.548565513207,-2252.6791221217104,718.4555656031557,-1005.8754368832236,-8397.478806345085,-3253.096028378135,1954.6558982447568,-747.7559541401109,-10848.23357431512,-5177.008478265059,2318.99713215075,1354.6567214162724,-8261.078282406454,-4442.240062512848,1775.46551353053,754.7202863191302,2001.6494550203015,-3063.3650327983646,-11070.590270193,-9992.624583997223,-12548.973685816713,-17337.359880146225,-7691.634328741774,-2813.9666507118623,-1213.927018015008,-8424.771459479078,-5006.601935938785
-8346.21881183825,-11065.006256103512,-7491.362722296462,1942.6094858269937,19.449936716180098,-25595.175592522868,-17842.242592259456,-2254.937824450041,715.694929424085,-1006.8165628533612,-8399.862992136099,-3254.539088199013,1953.4010636179069,-748.6343383789061,-10847.982607389747,-5178.26331289191,2317.7422975239,1354.59397968493,-8262.521342227332,-4443.432155408357,1774.9635796797902,756.037862677323,2003.7826738859476,-3064.4943839625307,-11070.339303267629,-9992.750067459907,-12551.734321995784,-17336.042303788032,-7691.822553935802,-2814.5940680252875,-1216.122978611996,-8425.963552374587,-5008.358704416375
-8346.97171261436,-11065.445448222912,-7492.743040385998,1941.354651200144,19.638161910207646,-25596.367685418372,-17843.434685154964,-2256.1926590768912,714.8792869166323,-1007.1930132414165,-8403.251045628595,-3255.7311810945207,1952.522679379112,-748.4461131848785,-10847.857123927064,-5179.204438862047,2317.867780986585,1355.59784738641,-8263.525209928814,-4444.937956960577,1774.3989040977071,757.5436642295435,2006.8570187217308,-3064.808092619244,-11069.272693834804,-9991.808941489773,-12551.922547189812,-17339.2421320865,-7693.0146468313105,-2817.2292207416726,-1216.4366872687087,-8428.159512971575,-5009.73902250591
-8346.030586644221,-11065.63367341694,-7492.994007311368,1941.291909468801,20.767513074372943,-25597.18332792583,-17843.183718229593,-2256.3808842709186,715.8204128867701,-1006.7538211220188,-8404.945072374845,-3255.9821480198907,1952.4599376477688,-747.1285368266857,-10847.417931807668,-5179.141697130704,2319.436324270148,1357.1663906699732,-8263.211501272099,-4445.126182154605,1774.7753544857624,758.6730153937089,2009.3666879754317,-3063.6787414550777,-11068.080600939298,-9990.177656474863,-12550.228520443561,-17350.033709877414,-7694.457706652189,-2820.1780821147718,-1213.550567626953,-8425.712585449217,-5010.6174067447055
-8346.030586644221,-11066.951249775131,-7492.554815191971,1941.7311015881987,21.394930387798105,-25597.68526177657,-17842.242592259456,-2256.1299173455486,716.3223467375102,-1006.0009203459086,-8404.192171598734,-3255.354730706465,1953.0873549611945,-745.9364439311779,-10846.978739688268,-5178.137829429224,2321.0048675537105,1358.2957418341384,-8261.893924913908,-4444.122314453124,1776.657606426038,759.1122075131065,2010.1195887515416,-3062.2356816342,-11067.6414088199,-9988.985563579357,-12550.542229100276,-17359.44496957879,-7694.896898771585,-2820.7427576968544,-1212.4212164627877,-8416.677776135894,-5009.927247699938
-8347.9128385845,-11069.021726909436,-7492.492073460628,1941.7311015881987,21.394930387798105,-25597.936228701936,-17842.054367065426,-2256.067175614206,715.694929424085,-1005.7499534205384,-8402.686370046513,-3254.790055124383,1953.526547080592,-745.6854770058078,-10846.602289300215,-5177.071219996402,2322.008735255191,1358.7976756848786,-8260.764573749742,-4443.181188482987,1778.351633172286,759.3631744384764,2009.9313635575145,-3061.043588738692,-11067.013991506476,-9988.10717934056,-12554.683183368881,-17353.233538175882,-7695.649799547696,-2819.989856920744,-1213.048633776213,-8411.156503777753,-5007.7940288342925
-8350.171540912828,-11070.402044998971,-7493.370457699422,1940.789975618061,20.45380441766036,-25599.00283813476,-17843.183718229593,-2256.694592927631,714.9420286479749,-1006.6283376593336,-8402.058952733089,-3254.9782803184103,1953.0873549611945,-745.8737021998354,-10846.79051449424,-5176.506544414319,2322.385185643246,1358.985900878906,-8260.764573749742,-4442.741996363588,1778.602600097656,759.4886579011614,2009.178462781404,-3059.6005289178142,-11065.63367341694,-9986.789602982368,-12559.828005338968,-17337.297138414884,-7698.033985338712,-2820.1780821147718,-1214.1152432090355,-8415.485683240388,-5006.97838632684
