Fp1,Fp2,F7,F3,Fz,F4,F8,FC3,FCz,FC4,T7,C3,Cz,C4,T8,CP3,CPz,CP4,P7,P3,Pz,P4,P8,O1,Oz,O2,VPVA,VNVB,HPHL,HNHR,Erbs,OrbOcc,Mass
-21165.42113454718,-20428.707725123357,-2071.92019412392,4442.365545975534,-1722.825200934159,-18552.102540668682,-4257.716630634508,9656.077937075965,6795.243213051243,6336.287448280736,4516.777239347759,8993.023320248252,8995.470247770609,8722.167266042608,10587.353455392937,9081.740128366568,2927.780151367187,8623.725489566199,9075.152246575606,8148.01768252724,9605.31987641987,4774.4575299714725,9628.032383165859,6375.061838250411,7517.71424946032,10132.538644891036,-8320.30647679379,-16853.74661495811,-3071.5214578728924,-3418.6087156596927,-19817.164069727845,-3400.1626466449934,-18309.35478210449
-21166.36226051732,-20431.84481169048,-2072.7358366313733,4441.361678274054,-1723.6408434416117,-18553.67108395225,-4259.222432186729,9655.387778031196,6793.988378424393,6335.095355385228,4515.710629914936,8992.207677740798,8994.466380069129,8720.912431415758,10585.9731373034,9080.987227590462,2927.1527340537614,8622.784363596062,9073.5209615607,8146.700106169046,9604.943426031812,4773.9555961207325,9626.903032001695,6375.250063444438,7517.776991191662,10132.852353547749,-8324.008238942999,-16852.80548898797,-3071.96064999229,-3420.5537093313114,-19814.968109130852,-3396.3981427644426,-18309.166556910463
-21167.303386487456,-20434.16625575015,-2073.6769626015102,4440.671519229286,-1724.1427772923519,-18556.118011474606,-4262.23403529117,9655.136811105827,6793.549186304996,6333.90326248972,4514.07934490003,8992.270419472143,8994.52912180047,8719.657596788908,10584.153627094469,9080.673518933747,2927.08999232242,8622.28242974532,9072.893544247278,8146.511880975019,9604.943426031812,4773.516404001336,9626.463839882295,6376.1284476832325,7518.467150236431,10133.6679960552,-8326.894358584754,-16857.385635375977,-3075.348703484786,-3422.749669928299,-19818.167937429327,-3399.974421450966,-18312.86831905967
-21166.36226051732,-20434.040772287462,-2072.1711610492903,4442.679254632248,-1722.0723001580488,-18555.67881935521,-4263.9280620374175,9656.95632131476,6795.933372096011,6335.220838847913,4514.644020482113,8995.031055651212,8997.038791054172,8721.351623535154,10584.71830267655,9082.932221262077,2929.09772772538,8624.29016514828,9074.901279650237,8149.27251715409,9608.080512598943,4775.273172478926,9628.659800479285,6379.391017713044,7520.97681949013,10136.867824353669,-8327.396292435495,-16864.600934480364,-3077.168213693719,-3423.25160377904,-19822.30889169793,-3406.0603693911894,-18316.193630820824
-21164.73097550241,-20433.036904585988,-2069.91245872096,4445.126182154605,-1718.6215049342104,-18552.98092490748,-4264.869188007555,9659.215023643092,6798.568524812396,6337.66776637027,4516.212563765676,8997.603466636254,8999.673943770558,8724.049517982883,10586.663296348168,9085.818340903834,2931.7956221731083,8626.862576133326,9076.720789859168,8151.719444676448,9611.280340897409,4777.343649613229,9631.232211464328,6382.088912160772,7522.859071430406,10139.502977070055,-8327.647259360865,-16873.00832648026,-3076.791763305664,-3426.01223995811,-19823.81469325015,-3412.8364763761815,-18318.76604180587
-21163.41339914422,-20431.59384476511,-2068.343915437397,4446.50650024414,-1715.7981270237972,-18549.71835487767,-4264.806446276212,9661.160017314709,6800.262551558644,6340.114693892629,4517.906590511924,8998.607334337734,9001.74442090486,8725.994511654502,10588.796515213813,9088.01430150082,2934.3052914268087,8629.184020192999,9077.410948903937,8152.346861989874,9613.225334569026,4778.661225971422,9633.051721673262,6382.590846011512,7523.611972206515,10140.13039438348,-8328.462901868317,-16880.411850778677,-3076.666279842979,-3429.274809987921,-19822.810825548677,-3421.3066101074214,-18319.958134701377
-21162.221306248717,-20429.14691724275,-2067.9047233179995,4447.196659288908,-1715.1079679790291,-18547.396910818,-4263.614353380704,9662.979527523643,6801.580127916837,6341.996945832904,4519.7888424522,8999.23475165116,9003.814898039165,8727.374829744036,10589.549415989924,9089.520103053042,2936.375768561112,8631.19175559596,9078.163849680046,8152.723312377928,9614.79387785259,4779.225901553505,9633.930105912055,6382.2771373548,7524.113906057258,10139.753943995423,-8327.52177589818,-16880.035400390625,-3078.1093396638566,-3429.274809987921,-19822.30889169793,-3430.6551280774565,-18321.150227596885
-21160.27631257709,-20425.8216054816,-2067.2773060045743,4448.326010453073,-1715.3589349043996,-18546.01659272846,-4261.857584903114,9664.548070807203,6802.89770427503,6343.1262969970685,4521.608352661132,9000.552328009353,9005.571666516753,8728.755147833572,10588.859256945156,9090.586712485863,2938.0070535760174,8632.69755714818,9079.418684306896,8153.978147004779,9616.550646330179,4779.727835404245,9634.369298031455,6383.03003813091,7525.368740684107,10139.942169189451,-8321.749536614669,-16869.99672337582,-3077.6074058131167,-3427.5180415103305,-19822.434375160617,-3433.541247719212,-18323.59715511924
-21158.26857717413,-20422.998227571185,-2065.7715044523534,4449.580845079923,-1715.170709710372,-18544.69901637027,-4259.347915649414,9665.300971583316,6803.838830245168,6343.9419395045215,4522.674962093955,9002.309096486944,9007.077468068974,8730.260949385793,10589.110223870528,9091.339613261975,2939.1991464715247,8633.764166581002,9080.736260665088,8155.9231406763965,9618.495640001798,4781.10815349378,9635.373165732935,6385.4142239219245,7527.752926475123,10141.824421129728,-8313.59311154014,-16857.824827495373,-3073.403709813168,-3425.259339182,-19818.85809647409,-3425.0711139879727,-18321.0247441342
-21159.20970314427,-20422.93548583984,-2066.022471377724,4448.827944303814,-1715.9863522178243,-18544.76175810161,-4257.4656637091375,9663.66968656841,6802.5212538869755,6343.251780459755,4522.110286511873,9002.246354755602,9006.889242874948,8730.511916311163,10589.988608109323,9090.900421142576,2938.5089874267574,8633.45045792429,9080.987227590462,8156.801524915192,9618.872090389852,4782.300246389288,9635.624132658304,6387.359217593544,7529.44695322137,10143.706673070003,-8310.83247536107,-16848.28808433131,-3069.8901728579867,-3422.498703002929,-19811.39183044433,-3412.397284256784,-18311.613484432823
-21162.72324009945,-20424.943221242804,-2068.594882362767,4446.255533318769,-1717.4921537700448,-18545.828367534436,-4255.959862156918,9661.097275583366,6800.764485409384,6342.310654489616,4521.169160541735,9000.928778397409,9005.634408248097,8730.44917457982,10590.866992348116,9090.398487291837,2937.630603187962,8633.011265804895,9080.673518933747,8157.115233571905,9618.181931345085,4783.492339284796,9635.059457076222,6388.614052220393,7530.262595728823,10144.89876596551,-8313.906820196853,-16840.884560032893,-3069.2627555445615,-3419.989033749229,-19804.803948653367,-3404.554567838969,-18301.700290880704
-21162.28404798005,-20423.751128347292,-2067.653756392629,4447.322142751593,-1715.2334514417144,-18543.25595654939,-4251.254232306229,9663.105010986326,6804.528989289936,6345.886933176141,4523.427862870065,9003.43844765111,9008.332302695826,8734.276420191714,10595.321655273436,9093.72379905299,2941.834299187911,8636.901253148126,9083.685122038189,8160.816995721114,9621.381759643553,4787.884260478772,9637.945576717977,6392.50403956363,7533.901616146688,10149.10246196546,-8313.84407846551,-16838.249407316507,-3065.2472847386407,-3415.0951787045124,-19802.10605420564,-3399.284262406198,-18294.1712831196
-21156.762775621915,-20419.610174078687,-2061.5050667210626,4452.906156841077,-1709.084761770148,-18537.107266877825,-4245.983926873458,9669.567409314606,6811.869771857009,6352.34933150442,4528.572684840152,9009.90084597939,9015.108409680815,8740.550593325965,10601.9095370644,9099.935230455902,2949.9279825310955,8643.802843595804,9089.771069978413,8167.279394049394,9628.471575285255,4794.221175344366,9643.655074270147,6398.276278847142,7539.673855430202,10155.37663509971,-8309.452157271537,-16842.390361585112,-3056.3379588880034,-3409.4484228836855,-19802.043312474296,-3394.7041160181943,-18292.665481567376
-21153.68843078613,-20418.60630637721,-2057.050403795744,4456.545177258943,-1705.1320326955693,-18534.22114723607,-4246.736827649568,9673.520138389184,6814.881374961451,6354.984484220805,4531.396062750565,9013.539866397252,9019.18662221808,8742.746553922954,10603.603563810648,9103.44876741108,2954.570870650441,8647.065413625616,9093.97476597836,8170.604705810547,9632.98897994192,4796.856328060752,9646.415710449217,6400.660464638157,7542.497233340614,10157.823562622068,-8308.260064376027,-16851.55065436112,-3051.381362111945,-3409.4484228836855,-19803.36088883249,-3395.896208913702,-18300.319972791167
-21154.566815024926,-20420.300333123458,-2057.050403795744,4456.294210333573,-1705.1320326955693,-18535.03678974352,-4251.316974037572,9673.331913195156,6813.37557340923,6353.729649593954,4531.1450958251935,9012.786965621144,9018.872913561368,8741.17801063939,10600.968411094264,9103.44876741108,2954.382645456414,8646.375254580846,9094.97863367984,8170.353738885175,9633.428172061314,4795.726976896587,9645.537326210422,6399.719338668019,7542.246266415244,10156.443244532535,-8311.208925749126,-16860.397238480415,-3053.8910313656447,-3413.5266354209493,-19807.752810026468,-3401.2919978091586,-18308.97833171644
-21155.068748875663,-20420.802266974195,-2058.5562053479644,4455.729534751489,-1706.198642128392,-18535.977915713655,-4254.579544067383,9672.516270687704,6811.556063200297,6352.035622847707,4531.709771407278,9011.657614456979,9017.116145083775,8739.985917743883,10599.023417422644,9103.009575291682,2952.751360441509,8645.18316168534,9095.355084067896,8170.228255422491,9632.863496479233,4794.221175344366,9644.596200240285,6398.652729235197,7541.807074295846,10155.251151637027,-8313.718595002825,-16862.34223215203,-3057.7810187088808,-3416.224529868677,-19815.971976832338,-3403.9271505255447,-18310.67235846268
-21156.700033890567,-20422.810002377155,-2062.1952257658304,4453.3453489604735,-1710.1513712029707,-18539.867903056896,-4258.783240067331,9670.132084896688,6807.728817588404,6348.020152041786,4531.27057928788,9008.95972000925,9013.037932546513,8736.974314639441,10595.94907258686,9100.625389500665,2948.6104061729025,8641.795108192844,9094.288474635072,8168.785195601615,9630.165602031504,4790.7076383891845,9642.149272717927,6395.954834787469,7539.422888504831,10152.678740651983,-8316.0400390625,-16859.456112510277,-3062.3611650968846,-3420.302742405941,-19823.689209787462,-3408.5700386448907,-18311.55074270148
-21162.472273174084,-20429.648851093487,-2068.657624094109,4446.820208900853,-1718.5587632028676,-18548.83997063888,-4265.559347052323,9664.673554269888,6800.701743678042,6340.302919086656,4526.941399825248,9003.124738994396,9005.822633442125,8730.072724191763,10589.17296560187,9095.229600605213,2941.4578487998556,8634.642550819797,9090.900421142576,8164.267790944952,9624.142395822624,4783.806047941509,9636.126066509045,6390.49630416067,7534.278066534744,10146.718276174444,-8321.435827957956,-16858.891436928196,-3069.1372720818767,-3426.953365928248,-19823.626468056125,-3419.1106495104336,-18317.38572371633
-21169.68757227847,-20437.67979270533,-2073.9279295268807,4439.855876721834,-1727.5935725161903,-18558.188488608914,-4271.959003649259,9659.089540180406,6793.737411499023,6332.6484278628695,4521.733836123817,8997.415241442228,8999.109268188473,8722.857425087375,10581.518474378083,9089.95929517244,2934.556258352179,8627.23902652138,9086.884950336656,8159.185710706208,9617.993706151055,4777.469133075913,9629.600926449424,6385.2259987278985,7529.133244564658,10140.381361308848,-8330.03144515188,-16861.401106181896,-3074.7212861713606,-3432.913830405787,-19816.47391068308,-3426.0749816894527,-18323.34618819387
-21172.448208457543,-20440.06397849635,-2073.4259956761407,4437.785399587529,-1731.2953346653987,-18561.764767295437,-4273.402063470136,9657.646480359528,6791.039517051295,6329.574083027086,4520.541743228308,8996.03492335269,8997.352499710885,8719.783080251593,10577.94219569156,9088.453493620222,2932.0465890984783,8624.352906879625,9084.187055888928,8156.989750109219,9615.5467786287,4775.900589792352,9626.965773733038,6383.28100505628,7527.062767430355,10138.310884174549,-8334.423366345856,-16858.703211734162,-3075.1604782907584,-3434.8588240774047,-19809.5723202354,-3421.996769152189,-18321.33845279091
-21168.871929771016,-20435.8602824964,-2068.343915437397,4441.298936542711,-1728.409215023643,-18558.43945553428,-4269.198367470189,9660.469858269942,6793.298219379625,6332.397460937499,4523.678829795435,8998.858301263106,9000.803294934723,8721.790815654553,10580.200898019888,9090.900421142576,2934.8072252775487,8626.988059596011,9083.559638575503,8158.119101273385,9617.178063643603,4779.037676359478,9629.224476061368,6385.163256996556,7528.568568982574,10140.88329515959,-8328.462901868317,-16846.59405758506,-3070.3293649773846,-3430.0904524953735,-19804.427498265315,-3409.8248732717407,-18310.233166343285
-21161.782114129317,-20429.648851093487,-2062.885384810598,4447.008434094881,-1722.5742340087888,-18552.102540668682,-4264.053545500104,9664.736296001232,6798.192074424342,6337.542282907586,4527.945267526728,9002.936513800369,9006.387309024209,8726.496445505241,10585.847653840716,9094.915891948498,2939.763822053608,8632.007398103411,9084.751731471011,8160.816995721114,9620.691600598786,4784.0570148668785,9634.118331106085,6389.053244339792,7531.6429138183585,10145.463441547592,-8315.977297331157,-16835.237804212065,-3064.1179335744755,-3421.1811266447367,-19801.478636892218,-3399.6607127942534,-18297.998528731492
-21155.69616618909,-20425.44515509354,-2059.309106124075,4451.5258387515405,-1717.9313458894424,-18547.14594389263,-4261.794843171771,9667.998866031041,6802.458512155633,6341.055819862767,4530.1412281237135,9005.885375173468,9010.591005024156,8730.888366699217,10590.42780022872,9098.178461978307,2943.4028424714734,8635.897385446646,9086.633983411284,8163.26392324347,9623.765945434568,4787.884260478772,9637.882834986636,6392.127589175575,7533.776132684004,10149.10246196546,-8306.440554167095,-16838.186665585166,-3060.2279462312395,-3415.910821211965,-19804.427498265315,-3400.1626466449934,-18294.1712831196
-21153.939397711496,-20424.064837004007,-2058.8071722733343,4452.906156841077,-1716.174577411852,-18545.51465887772,-4261.1046841270045,9669.379184120578,6804.215280633223,6342.1224292955885,4529.576552541632,9006.575534218233,9011.657614456979,8732.70787690815,10591.619893124229,9099.056846217105,2944.030259784899,8636.838511416785,9087.324142456051,8163.828598825555,9624.644329673363,4788.637161254882,9638.384768837375,6392.190330906918,7534.027099609374,10149.35342889083,-8304.746527420846,-16855.87983382375,-3059.537787186472,-3418.5459739283506,-19811.642797369703,-3408.758263838918,-18299.880780671767
-21157.578418129367,-20425.94708894428,-2062.5716761538856,4450.208262393348,-1718.0568293521278,-18548.087069862762,-4261.794843171771,9667.43419044896,6802.207545230262,6340.365660817999,4525.937532123766,9004.128606695875,9008.771494815222,8730.511916311163,10589.17296560187,9096.045243112663,2941.144140143143,8634.077875237715,9084.626248008326,8161.130704377825,9621.758210031609,4785.500074687757,9635.686874389647,6388.802277414422,7531.517430355673,10145.777150204305,-8310.5815084357,-16872.00445877878,-3062.8003572162825,-3426.451432077508,-19816.41116895173,-3418.169523540296,-18308.85284825375
-21164.856458965096,-20431.468361302424,-2069.41052487022,4444.247797915808,-1723.7035851729543,-18554.298501265675,-4267.190632067228,9661.599209434109,6795.870630364669,6334.781646728515,4519.914325914884,8998.544592606393,9002.246354755602,8724.300484908254,10583.337984587013,9089.269136127672,2934.6190000835213,8627.552735178095,9078.665783530787,8155.107498168944,9615.29581170333,4778.723967702765,9630.165602031504,6382.841812936882,7525.870674534846,10139.942169189451,-8320.933894107215,-16875.580737465305,-3069.20001381322,-3434.921565808748,-19816.72487760845,-3424.694663599917,-18317.762174104388
-21170.81692344264,-20437.11511712325,-2074.5553468403054,4439.793134990491,-1728.660181949013,-18559.129614579047,-4275.033348485043,9656.70535438939,6789.91016588713,6329.260374370374,4516.087080302991,8993.776221024362,8996.536857203433,8718.21453696803,10578.193162616928,9083.810605500872,2928.470310411955,8621.843237625922,9074.713054456208,8150.27638485557,9609.774539345188,4772.826244956568,9625.77368083753,6378.575375205592,7521.039561221473,10135.863956652189,-8329.654994763825,-16871.565266659385,-3075.285961753443,-3440.191871241519,-19816.28568548905,-3428.521909211811,-18325.730373984887
-21174.016751741103,-20440.189461959035,-2076.751307437294,4438.161849975585,-1730.1032417698907,-18560.384449205896,-4279.362527947676,9655.262294568513,6788.027913946854,6327.315380698756,4516.714497616416,8992.270419472143,8994.466380069129,8715.830351177014,10577.063811452765,9082.681254336707,2926.1488663522814,8620.400177805046,9075.403213500975,8149.084291960063,9608.017770867598,4770.943993016293,9625.459972180815,6378.2616665488795,7520.349402176706,10135.67573145816,-8333.419498644376,-16865.165610062442,-3079.6151412160766,-3441.885897987767,-19817.5405201159,-3432.2864130923617,-18329.996811716177
-21178.220447741052,-20444.64412488435,-2080.202102661133,4434.648313020404,-1732.2364606355363,-18564.08621135511,-4282.123164126747,9652.438916658097,6786.208403737921,6325.119420101767,4516.777239347759,8990.011717143809,8992.01945254677,8713.697132311368,10575.432526437859,9081.23819451583,2924.4548396060336,8618.894376252825,9075.528696963662,8147.578490407842,9606.010035464637,4769.37544973273,9624.958038330076,6377.4460240414255,7520.098435251336,10134.985572413394,-8335.99190962942,-16859.769821166992,-3084.0070624100526,-3445.399434942948,-19819.6109972502,-3433.8549563759248,-18331.188904611685
-21181.984951621605,-20449.537979929068,-2083.4019309596006,4430.130908363744,-1735.6245141280324,-18569.67022544459,-4284.381866455078,9648.423445852177,6783.573251021535,6321.982333534642,4515.459662989566,8986.874630576685,8988.694140785617,8711.061979594982,10572.546406796102,9078.352074874074,2922.3216207403884,8615.945514879728,9073.70918675473,8145.1315628854845,9602.810207166169,4767.17948913574,9622.699336001746,6375.187321713095,7518.5298919677725,10132.66412835372,-8338.187870226406,-16856.632734599865,-3086.077539544356,-3449.5403892115537,-19819.297288593487,-3426.2632068834805,-18328.49101016396
-21179.349798905216,-20448.53411222759,-2080.0766191984476,4430.444617020456,-1735.2480637399772,-18569.41925851922,-4281.307521619296,9648.548929314866,6784.45163526033,6322.609750848067,4517.718365317896,8986.937372308028,8988.819624248303,8711.563913445723,10573.48753276624,9078.47755833676,2922.886296322471,8615.945514879728,9074.399345799495,8145.633496736224,9602.621981972143,4767.932389911852,9622.134660419664,6375.250063444438,7518.655375430458,10132.287677965664,-8334.360624614514,-16850.0448528089,-3080.6817506489,-3445.399434942948,-19815.971976832338,-3411.2051913612763,-18317.511207179017
-21171.19337383069,-20442.32268082468,-2072.1711610492903,4435.338472065172,-1731.1698512027135,-18563.45879404168,-4274.405931171616,9652.815367046154,6788.467106066251,6326.813446848016,4522.737703825298,8989.886233681125,8992.207677740798,8714.512774818819,10577.816712228874,9081.865611829255,2925.960641158254,8619.01985971551,9077.599174097964,8148.456874646637,9605.31987641987,4771.006734747635,9624.016912359939,6377.069573653371,7520.098435251336,10133.605254323858,-8325.388557032535,-16842.955037167198,-3070.7685570967824,-3434.7960823460626,-19811.07812178762,-3398.907812018143,-18302.264966462782
-21163.538882606903,-20436.989633660567,-2066.5871469598064,4439.667651527806,-1727.468089053505,-18558.75316419099,-4270.139493440326,9656.830837852076,6792.106126484116,6330.577950728566,4525.372856541683,8992.207677740798,8995.532989501951,8716.959702341177,10581.079282258685,9084.814473202352,2928.470310411955,8621.717754163239,9079.669651232267,8150.401868318254,9607.641320479543,4772.888986687911,9626.212872956927,6377.508765772769,7519.910210057309,10133.981704711912,-8319.616317749022,-16846.53131585372,-3063.929708380448,-3427.643524973016,-19807.250876175727,-3397.0883018092095,-18294.924183895717
-21160.590021233806,-20435.92302422774,-2066.022471377724,4440.2323271098885,-1727.0288969341075,-18559.380581504414,-4271.017877679122,9657.897447284897,6792.16886821546,6330.891659385279,4524.619955765573,8992.70961159154,8996.03492335269,8716.896960609836,10580.640090139288,9084.939956665037,2927.8428930985297,8621.592270700554,9079.104975650183,8149.9626761988575,9607.766803942228,4771.885118986431,9626.27561468827,6375.31280517578,7517.463282534951,10131.848485846269,-8320.05550986842,-16857.511118838658,-3061.294555664062,-3429.902227301346,-19807.878293489157,-3405.1192434210525,-18301.82577434339
-21161.531147203943,-20437.11511712325,-2067.528272929944,4438.7265255576685,-1728.4719567549855,-18562.4549263402,-4274.343189440275,9657.70922209087,6790.035649349814,6329.134890907689,4523.427862870065,8992.584128128854,8994.52912180047,8715.20293386359,10578.318646079617,9083.747863769528,2926.1488663522814,8619.71001876028,9077.724657560648,8148.9588084973775,9606.511969315376,4769.312708001387,9624.456104479335,6372.489427265367,7514.890871549906,10128.6486575478,-8324.133722405682,-16866.294961226613,-3060.604396619294,-3438.3096193012434,-19814.528917011456,-3416.350013331363,-18315.754438701428
-21161.154696815887,-20435.483832108344,-2066.7753721538343,4440.169585378546,-1726.5269630833675,-18561.26283344469,-4274.46867290296,9660.344374807257,6791.7296760960635,6330.640692459909,4525.247373078998,8995.21928084524,8996.599598934774,8717.085185803864,10579.385255512436,9085.818340903834,2928.972244262695,8621.153078581157,9079.606909500924,8151.531219482421,9608.268737792969,4770.065608777498,9625.146263524104,6373.744261892218,7516.333931370784,10129.087849667196,-8327.960968017578,-16872.067200510122,-3060.980847007349,-3443.015249151932,-19822.30889169793,-3428.0827170924126,-18323.84812204461
-21156.072616577145,-20428.582241660668,-2061.5050667210626,4447.259401020249,-1718.8724718595804,-18553.79656741493,-4269.072884007504,9667.43419044896,6799.446909051192,6337.605024638929,4531.709771407278,9002.685546874998,9004.69328227796,8724.739677027652,10585.9731373034,9093.096381739566,2937.7560866506474,8628.242894222862,9086.633983411284,8159.24845243755,9615.107586509303,4777.029940956517,9630.918502807615,6380.959560996607,7522.984554893092,10135.612989726818,-8325.827749151931,-16871.126074539985,-3060.8553635446647,-3440.003646047491,-19825.9479121158,-3436.992042943051,-18321.33845279091
-21151.61795365183,-20422.998227571185,-2056.1720195569487,4454.098249736585,-1712.8492656506987,-18548.40077851948,-4264.618221082184,9672.89272107576,6805.470115260074,6343.063555265727,4537.419268959447,9008.771494815222,9010.841971949527,8730.44917457982,10590.92973407946,9098.492170635021,2944.4067101729543,8633.764166581002,9092.280739232114,8165.334400377775,9620.126925016702,4782.676696777343,9635.122198807567,6386.794542011461,7528.003893400492,10141.071520353617,-8320.243735062446,-16862.46771561472,-3059.6005289178142,-3436.678334286338,-19825.57146172774,-3437.180268137078,-18316.444597746195
-21155.947133114456,-20427.8920826159,-2059.246364392732,4450.835679706774,-1718.11957108347,-18554.298501265675,-4268.696433619449,9668.249832956413,6800.6390019467,6338.169700221011,4534.0939571982935,9004.191348427219,9005.571666516753,8724.99064395302,10585.910395572058,9093.347348664935,2939.450113396895,8628.556602879571,9087.637851112766,8160.25232013903,9614.542910927219,4777.343649613229,9629.287217792713,6382.339879086142,7523.3610052811455,10136.365890502928,-8320.11825159976,-16856.068059017784,-3062.612132022255,-3440.505579898232,-19822.246149966588,-3431.7844792416217,-18318.26410795513
-21164.480008577044,-20438.118984824727,-2068.218431974712,4440.7342609606285,-1729.6013079191507,-18566.34491368344,-4276.978342156661,9657.771963822212,6789.345490305047,6327.6918310868095,4524.745439228258,8993.086061979593,8993.838962755704,8713.25794019197,10575.620751631886,9082.179320485968,2927.2154757851044,8617.388574700606,9076.846273321853,8147.829457333213,9602.998432360195,4765.924654508892,9618.683865195826,6372.112976877313,7513.698778654399,10126.452696950812,-8322.31421219675,-16852.30355513723,-3068.3843713057668,-3444.9602428235503,-19816.222943757708,-3423.879021092465,-18321.58941971628
-21169.122896696386,-20444.204932764955,-2074.7435720343337,4433.707187050267,-1736.8166070235402,-18574.37585529528,-4281.244779887952,9650.431181255137,6781.502773887232,6320.978465833161,4517.216431467156,8985.180603830435,8985.808021143863,8705.352482042812,10569.158353303606,9074.650312724863,2917.9924412777546,8610.173275596217,9069.505490754778,8138.606422825862,9595.908616718492,4758.834838867187,9613.099851106339,6365.964287205746,7508.365731490285,10121.496100174752,-8321.812278346011,-16848.413567793996,-3069.5764642012746,-3443.579924734014,-19809.697803698087,-3413.4011519582646,-18318.640558343184
-21167.868062069538,-20444.518641421662,-2075.0572806910463,4433.456220124896,-1736.6911235608547,-18574.62682222065,-4279.927203529759,9649.803763941714,6781.251806961862,6321.103949295846,4514.769503944798,8984.113994397614,8985.05512036775,8704.976031654758,10569.221095034947,9074.336604068152,2916.4238979941915,8609.985050402189,9069.442749023438,8137.288846467671,9596.222325375204,4758.960322329872,9614.60565265856,6367.407347026624,7510.687175549959,10124.131252891139,-8320.620185450502,-16849.54291895816,-3064.682609156558,-3440.1291295101764,-19807.31361790707,-3404.680051301654,-18312.052676552215
-21163.538882606903,-20442.699131212732,-2071.731968929893,4437.28346573679,-1732.424685829564,-18570.10941756399,-4276.413666574577,9653.881976478977,6785.831953349865,6325.056678370424,4516.0243385716485,8987.690273084138,8988.631399054275,8709.367952848734,10573.550274497584,9078.03836621736,2920.188401874743,8614.00052120811,9073.395478098015,8141.492542467618,9600.175054449783,4763.1640183298205,9619.687732897306,6373.367811504163,7516.773123490182,10129.840750443307,-8322.188728734065,-16857.573860570003,-3058.533919484992,-3438.874294883326,-19812.144731220444,-3403.9271505255447,-18307.09607977616
-21161.656630666632,-20442.76187294408,-2071.606485467208,4439.918618453176,-1729.664049650493,-18566.031205026724,-4274.907865022356,9656.830837852076,6789.282748573704,6327.754572818153,4516.338047228361,8990.388167531866,8991.01558484529,8713.50890711734,10577.879453960217,9079.795134694952,2923.5764553672384,8617.26309123792,9075.403213500975,8145.3197880795105,9602.872948897511,4766.865780479029,9623.703203703226,6377.759732698139,7520.788594296104,10133.6679960552,-8329.843219957853,-16867.48705412212,-3057.843760440224,-3441.195738942999,-19819.673738981543,-3413.27566849558,-18306.65688765676
-21164.73097550241,-20445.08331700375,-2076.939532631321,4438.914750751696,-1730.479692157946,-18564.211694817797,-4276.099957917865,9655.826970150596,6789.220006842362,6327.817314549496,4513.702894511976,8990.137200606494,8991.078326576633,8715.140192132247,10579.44799724378,9078.854008724815,2924.266614412006,8618.392442402086,9074.148378874126,8146.449139243677,9603.31214101691,4768.371582031249,9625.08352179276,6378.575375205592,7521.3532698781855,10134.483638562651,-8342.26608276367,-16875.76896265933,-3064.4943839625307,-3446.654269569798,-19822.93630901136,-3425.949498226768,-18314.185895417864
-21167.42886995014,-20444.33041622764,-2081.080486899928,4438.852009020353,-1729.4758244564655,-18561.513800370063,-4275.598024067125,9655.325036299855,6790.286616275184,6329.574083027086,4512.6990268104955,8991.266551770661,8993.399770636306,8718.026311774001,10580.891057064657,9080.297068545693,2926.4625750089945,8621.090336849815,9074.399345799495,8148.645099840665,9605.884552001951,4771.257701673006,9627.216740658409,6380.457627145867,7522.984554893092,10136.742340890984,-8348.97944801732,-16883.92538773386,-3071.5214578728924,-3450.544256913034,-19822.371633429277,-3434.1686650326374,-18324.97747320877
-21162.221306248717,-20435.23286518297,-2076.374857049239,4445.565374274001,-1721.4448828446236,-18554.235759534327,-4268.633691888105,9661.222759046052,6797.564657110916,6337.291315982216,4518.8477164820615,8998.544592606393,9001.618937442174,8725.994511654502,10586.663296348168,9088.077043232162,2934.681741814864,8629.058536730314,9080.673518933747,8156.236849333109,9614.103718807823,4778.786709434107,9634.181072837428,6387.610184518913,7529.886145340768,10144.334090383429,-8340.634797748764,-16884.615546778627,-3069.5764642012746,-3447.0307199578533,-19822.120666503903,-3434.607857152035,-18326.546016492335
-21151.24150326377,-20421.868876407018,-2065.708762721011,4455.666793020147,-1710.9042719790807,-18545.389175415035,-4259.034206992701,9670.132084896688,6806.787691618266,6346.765317414936,4528.3217179147805,9007.328434994346,9010.779230218184,8734.652870579768,10593.9413371839,9097.300077739512,2944.2184849789264,8637.96786258095,9089.206394396328,8165.083433452403,9623.640461971885,4787.005876239977,9642.400239643295,6395.578384399413,7538.042570415296,10152.804224114669,-8321.31034449527,-16864.287225823653,-3058.9731116043886,-3437.243009868421,-19819.48551378752,-3426.2632068834805,-18316.946531596932
-21145.092813592204,-20414.402610377256,-2059.497331318102,4459.117588243986,-1707.3279932925575,-18542.75402269865,-4255.708895231548,9672.641754150387,6809.046393946597,6349.086761474608,4531.1450958251935,9008.457786158511,9012.535998695772,8735.782221743933,10594.380529303298,9098.805879291735,2946.100736919202,8639.348180670486,9090.774937679893,8166.150042885227,9626.08738949424,4788.072485672799,9643.278623882094,6395.954834787469,7539.171921579459,10153.61986662212,-8306.31507070441,-16835.426029406095,-3049.8128188283818,-3430.1531942267166,-19809.82328716077,-3413.087443301552,-18307.78623882093
-21147.288774189197,-20415.845670198138,-2061.128616333008,4454.600183587325,-1711.5944310238483,-18546.894976967254,-4259.598882574784,9667.747899105674,6804.779956215306,6344.318389892577,4526.251240780479,9002.497321680972,9007.7048853824,8730.009982460422,10588.169097900389,9093.159123470909,2940.7049480237456,8633.638683118317,9085.190923590408,8159.938611482318,9621.56998483758,4782.802180240028,9637.067192479182,6389.743403384559,7533.901616146688,10147.847627338608,-8304.809269152189,-16826.704928749485,-3048.369759007504,-3430.9688367341687,-19796.52204011616,-3403.676183600174,-18305.151086104543
-21151.68069538317,-20419.986624466743,-2063.951994243421,4450.27100412469,-1715.2334514417144,-18550.157546997063,-4262.73596914191,9663.795170031097,6801.768353110865,6340.742111206054,4522.047544780529,8998.795559531764,9005.006990934673,8726.182736848528,10584.216368825812,9089.4573613217,2936.626735486482,8629.623212312395,9081.551903172542,8155.797657213712,9618.0564478824,4779.790577135587,9632.54978782252,6385.978899504008,7530.137112266138,10144.020381726716,-8310.5815084357,-16839.06504982396,-3051.506845574629,-3434.607857152035,-19785.60497886256,-3401.668448197214,-18302.64141685084
-21152.308112696595,-20421.36694255628,-2062.0697423031447,4451.776805676912,-1713.225716038754,-18548.338036788136,-4260.790975470291,9665.551938508685,6803.90157197651,6342.938071803042,4522.988670750668,9001.305228785464,9008.332302695826,8728.378697445518,10586.788779810853,9092.029772306743,2938.258020501388,8631.881914640726,9084.124314157583,8157.9308760793565,9620.06418328536,4782.300246389288,9634.181072837428,6388.425827026366,7531.203721698962,10145.839891935648,-8316.10278079384,-16853.49564803274,-3053.26361405222,-3434.1059233012948,-19782.091441907374,-3402.107640316612,-18297.93578700015
-21152.182629233914,-20422.998227571185,-2059.811039974815,4454.6629253186675,-1711.2179806357933,-18546.581268310543,-4259.724366037469,9668.061607762384,6806.787691618266,6345.573224519428,4524.557214034231,9004.379573621249,9011.845839651009,8730.951108430558,10589.42393252724,9095.543309261922,2940.830431486431,8635.019001207853,9086.947692068,8160.879737452455,9622.887561195772,4784.872657374332,9636.439775165758,6391.24920493678,7532.646781519838,10148.224077726663,-8323.5690468236,-16863.157874659482,-3055.083124261153,-3431.7844792416217,-19788.553840235654,-3405.30746861508,-18298.12401219418
-21155.570682726408,-20428.582241660668,-2062.822643079256,4453.094382035104,-1714.3550672029191,-18549.592871414985,-4264.116287231444,9666.304839284798,6805.281890066046,6343.000813534384,4522.235769974557,9002.43457994963,9009.96358771073,8729.068856490285,10586.788779810853,9094.288474635072,2939.5755968595804,8633.575941386975,9085.002698396382,8159.813128019634,9621.381759643553,4783.178630628084,9634.181072837428,6389.304211265162,7530.576304385536,10146.467309249072,-8331.098054584703,-16866.23221949527,-3061.73374778346,-3435.674466584858,-19799.282676295228,-3415.9735629433076,-18306.59414592542
-21157.515676398023,-20431.970295153165,-2065.457795795641,4451.400355288856,-1717.4294120387024,-18552.353507594056,-4268.131758037366,9664.48532907586,6803.462379857113,6339.675501773231,4520.3535180342815,9000.1758776213,9007.391176725689,8727.123862818667,10584.090885363126,9092.217997500768,2937.881570113332,8631.44272252133,9082.304803948655,8158.558293392783,9619.31128250925,4781.170895225122,9631.608661852384,6386.418091623406,7528.380343788547,10144.083123458058,-8329.090319181742,-16857.385635375977,-3067.6314705296563,-3442.638798763877,-19806.937167519012,-3425.3220809133422,-18315.81718043277
-21154.44133156224,-20428.20579127261,-2062.257967497173,4454.788408781353,-1715.6099018297696,-18550.157546997063,-4266.061280903064,9667.245965254931,6805.972049110814,6340.993078131424,4523.051412482009,9002.685546874998,9009.336170397306,8729.257081684313,10586.035879034744,9093.912024247018,2939.889305516293,8633.011265804895,9082.994962993422,8160.942479183798,9621.0053092555,4782.613955046001,9632.675271285207,6386.982767205489,7529.3214697586845,10144.89876596551,-8319.177125629625,-16843.58245448062,-3065.3727682013255,-3444.3328255101246,-19810.199737548824,-3423.879021092465,-18319.958134701377
-21152.057145771225,-20422.810002377155,-2058.8071722733343,4458.615654393246,-1712.4728152626435,-18547.271427355317,-4262.045810097142,9670.947727404142,6809.799294722707,6343.7537143104955,4526.3139825118205,9006.575534218233,9012.222290039059,8731.892234400697,10588.671031751128,9096.484435232062,2943.151875546104,8635.144484670538,9084.563506276983,8163.828598825555,9623.201269852487,4784.433465254934,9634.118331106085,6388.551310489052,7531.266463430303,10146.216342323703,-8313.84407846551,-16836.743605764288,-3060.165204499897,-3443.3916995399873,-19813.08585719058,-3417.7930731522406,-18321.714903178967
-21152.99827174136,-20421.492426018965,-2058.869914004677,4458.8038795872735,-1711.657172755191,-18547.083202161284,-4260.916458932977,9672.014336836963,6810.740420692845,6344.255648161235,4527.3178502133005,9008.269560964483,9012.598740427116,8732.205943057412,10588.733773482472,9097.551044664884,2944.5949353669816,8635.332709864566,9085.50463224712,8165.083433452403,9623.703203703226,4784.621690448961,9634.24381456877,6389.492436459189,7532.709523251181,10146.6555344431,-8316.0400390625,-16834.296678241928,-3058.4711777536486,-3444.3328255101246,-19818.79535474275,-3413.965827540347,-18321.4639362536
-21153.751172517477,-20423.625644884607,-2060.0620069001848,4456.858885915655,-1712.4100735313011,-18548.338036788136,-4261.669359709087,9671.198694329512,6809.046393946597,6343.251780459755,4528.133492720754,9008.144077501798,9011.343905800266,8731.013850161902,10587.792647512333,9097.739269858914,2944.2812267102686,8634.517067357112,9086.822208605312,8165.334400377775,9623.703203703226,4783.931531404192,9634.24381456877,6389.99437030993,7533.525165758633,10147.031984831156,-8318.863416972912,-16832.79087668971,-3059.349561992444,-3445.775885331003,-19825.006786145655,-3412.5227677194694,-18317.38572371633
-21154.44133156224,-20428.017566078583,-2061.1913580643495,4453.784541079872,-1714.6687758596315,-18551.286898161237,-4263.614353380704,9668.939992001182,6806.160274304841,6340.804852937396,4528.572684840152,9006.45005075555,9008.834236546563,8728.566922639544,10585.9731373034,9096.735402157434,2942.2734913073086,8632.383848491465,9087.073175530684,8163.954082288238,9622.134660419664,4781.798312538548,9633.17720513595,6388.739535683079,7532.709523251181,10146.090858861018,-8321.059377569902,-16835.36328767475,-3061.4200391267473,-3447.4071703459085,-19826.575329429223,-3412.146317331414,-18312.491868671612
-21155.82164965177,-20432.033036884503,-2061.128616333008,4451.463097020199,-1716.425544337222,-18553.922050877616,-4264.931929738897,9667.559673911646,6804.528989289936,6338.922600997121,4529.26284388492,9005.132474397356,9006.826501143605,8726.872895893297,10584.279110557154,9096.170726575347,2940.516722829718,8630.627080013877,9086.822208605312,8162.573764198704,9620.566117136099,4780.292510986327,9632.361562628494,6387.610184518913,7531.705655549701,10144.773282502823,-8324.25920586837,-16836.931830958314,-3061.545522589432,-3446.9679782265102,-19820.74034841437,-3408.256329988178,-18307.033338044817
-21154.504073293585,-20431.656586496447,-2057.6150793778265,4453.1571237664475,-1713.8531333521792,-18551.286898161237,-4262.359518753854,9670.069343165347,6806.3484994988685,6341.432270250822,4532.52541391473,9007.328434994346,9008.771494815222,8729.19433995297,10586.537812885485,9098.805879291735,2942.085266113281,8632.885782342206,9089.833811709752,8164.832466527034,9622.636594270403,4782.990405434056,9635.18494053891,6390.3708206979845,7533.525165758633,10146.969243099815,-8325.01210664448,-16836.367155376232,-3056.400700619346,-3440.6310633609164,-19809.697803698087,-3401.0410308837886,-18299.755297209085
-21148.606350547383,-20426.511764526364,-2050.776230661492,4459.054846512643,-1707.014284635845,-18543.883373862816,-4256.399054276314,9676.65722495631,6811.242354543585,6348.082893773128,4538.046686272872,9012.661482158459,9014.73195929276,8734.966579236481,10592.43553563168,9104.829085500616,2947.1673463520247,8639.2226972078,9096.860885620115,8171.106639661286,9628.5343170166,4789.2018368369645,9641.584597135843,6396.833219026264,7538.858212922749,10152.929707577352,-8321.686794883326,-16840.06891752544,-3048.369759007504,-3432.8510886744443,-19801.039444772818,-3397.213785271895,-18294.547733507658
-21144.339912816096,-20422.496293720444,-2046.7607598555712,4463.133059049907,-1702.8105886358962,-18539.679677862863,-4252.948259052477,9680.798179224916,6814.379441110711,6352.161106310392,4540.681838989257,9015.547601800215,9018.747430098685,8738.291890997634,10595.698105661491,9108.154397261767,2950.3671746504933,8643.363651476406,9101.315548545437,8175.059368735866,9632.424304359836,4792.8408572548315,9644.972650628339,6400.7232063695,7542.4344916092705,10156.945178383272,-8318.29874139083,-16850.985978779037,-3044.7307385896374,-3432.160929629677,-19800.412027459395,-3400.476355301706,-18297.433853149407
-21148.543608816042,-20425.758863750252,-2051.905581825657,4459.49403863204,-1706.449609053762,-18544.197082519528,-4256.02260388826,9676.092549374227,6810.61493723016,6348.647569355211,4535.411533556486,9010.71648848684,9015.610343531558,8734.527387117083,10592.498277363024,9103.323283948397,2946.288962113229,8639.724631058541,9096.735402157434,8170.479222347859,9628.848025673313,4789.013611642938,9641.082663285106,6396.707735563577,7538.544504266035,10153.745350084804,-8320.431960256476,-16869.18108086837,-3051.9460376940274,-3438.4351027639286,-19806.6234588623,-3412.146317331414,-18307.660755358243
-21156.700033890567,-20432.28400380988,-2061.0658746016647,4452.592448184364,-1713.0374908447263,-18551.098672967208,-4261.983068365799,9667.43419044896,6804.0270554391955,6342.247912758275,4527.3178502133005,9002.748288606339,9009.524395591332,8728.504180908201,10587.855389243676,9095.543309261922,2939.512855128238,8633.136749267578,9088.390751888877,8162.197313810648,9622.322885613692,4782.488471583316,9635.24768227025,6389.178727802477,7531.078238236275,10147.220210025183,-8326.894358584754,-16881.98039406224,-3065.0590595446133,-3443.077990883274,-19814.40343354877,-3429.086584793893,-18317.07201505962
-21161.091955084543,-20434.793673063577,-2066.3361800344364,4449.141652960526,-1716.425544337222,-18553.98479260896,-4267.127890335885,9662.603077135587,6801.015452334755,6338.797117534436,4523.114154213353,8998.795559531764,9006.512792486892,8725.931769923158,10585.847653840716,9091.590580187343,2937.0659276058796,8630.18788789448,9083.747863769528,8158.056359542042,9619.248540777908,4779.727835404245,9632.926238210575,6384.7868066085,7526.874542236326,10143.518447875975,-8330.658862465305,-16877.902181524976,-3073.278226350483,-3443.642666465357,-19818.607129548724,-3442.3250901071647,-18323.5344133879
-21159.33518660696,-20431.970295153165,-2066.1479548404086,4450.835679706774,-1715.0452262476867,-18551.34963989257,-4268.319983231393,9663.732428299752,6803.525121588456,6340.365660817999,4524.557214034231,9001.054261860094,9008.646011352535,8728.629664370887,10587.541680586965,9093.347348664935,2940.5794645610604,8632.572073685495,9085.128181859063,8160.566028795743,9621.06805098684,4782.2375046579455,9635.18494053891,6386.041641235352,7528.44308551989,10144.773282502823,-8328.588385331002,-16862.404973883375,-3071.2704909475224,-3442.7015404952194,-19816.47391068308,-3441.760414525082,-18323.84812204461
-21155.44519926372,-20427.39014876516,-2063.763769049393,4454.286474930612,-1711.4689475611635,-18545.891109265776,-4265.371121858295,9667.62241564299,6808.1680097078015,6344.569356817948,4528.3217179147805,9005.69714997944,9013.1634160092,8733.335294221575,10591.117959273488,9097.864753321597,2945.849769993832,8637.403186998867,9088.829944008272,8165.710850765829,9624.76981313605,4786.8803927772915,9639.451378270196,6389.680661653217,7532.082105937757,10148.224077726663,-8325.01210664448,-16847.78615048057,-3063.6159997237355,-3441.823156256424,-19808.944902921972,-3427.2043328536174,-18315.628955238742
-21153.62568905479,-20423.625644884607,-2062.9481265419404,4455.792276482833,-1709.210245232833,-18541.561929803145,-4262.422260485197,9670.257568359373,6811.179612812241,6347.769185116416,4530.078486392372,9008.332302695826,9015.986793919614,8736.095930400646,10593.18843640779,9100.876356426035,2949.0495982923,8640.352048371964,9090.398487291837,8168.596970407586,9626.77754853901,4790.017479344418,9642.212014449267,6391.50017186215,7533.776132684004,10149.918104472912,-8322.376953928095,-16842.13939465974,-3058.4084360223064,-3441.948639719109,-19799.47090148925,-3410.9542244359063,-18305.778503417965
-21155.31971580104,-20423.186452765207,-2065.332312332956,4453.910024542557,-1710.339596396998,-18541.373704609116,-4262.23403529117,9669.253700657891,6810.677678961502,6348.208377235814,4528.258976183439,9007.89311057643,9015.35937660619,8735.468513087222,10592.561019094366,9100.060713918585,2948.735889635588,8639.975597983912,9088.95542747096,8167.342135780735,9625.648197374845,4790.017479344418,9641.961047523897,6390.182595503957,7532.772264982523,10148.66326984606,-8322.251470465406,-16844.962772570158,-3058.4084360223064,-3441.948639719109,-19793.196728355004,-3401.9821568539264,-18300.006264134452
-21159.084219681583,-20427.39014876516,-2069.4732666015625,4450.020037199321,-1713.978616814864,-18544.94998329564,-4263.865320306074,9665.802905434057,6807.728817588404,6346.075158370168,4524.557214034231,9005.132474397356,9012.347773501746,8732.70787690815,10590.866992348116,9096.484435232062,2945.724286531147,8637.779637386924,9086.884950336656,8163.326664974813,9622.762077733089,4787.6960352847445,9639.765086926913,6387.421959324886,7530.45082092285,10146.028117129676,-8326.078716077302,-16853.244681107368,-3061.23181393272,-3440.3800964355464,-19794.0751125938,-3400.7900639584186,-18299.00239643297
-21159.64889526367,-20431.782069959132,-2070.3516508403577,4448.702460841128,-1715.5471600984267,-18547.585136012025,-4264.4927376195,9664.548070807203,6805.972049110814,6344.255648161235,4522.925929019325,9003.312964188424,9010.214554636099,8730.762883236534,10590.992475810803,9094.100249441044,2943.2146172774465,8636.336577566044,9086.445758217258,8160.377803601716,9620.503375404758,4786.315717195209,9638.51025230006,6386.104382966692,7529.44695322137,10144.522315577457,-8326.957100316096,-16864.161742360968,-3061.4827808580894,-3438.9370366146686,-19799.972835339995,-3405.0565016897094,-18302.013999537412
-21154.378589830896,-20431.40561957108,-2065.6460209896686,4452.278739527652,-1712.7865239193563,-18545.640142340402,-4262.610485679224,9667.62241564299,6807.603334125719,6345.447741056742,4525.498340004368,9005.006990934673,9010.841971949527,8731.892234400697,10593.627628527189,9094.97863367984,2943.340100740131,8636.838511416785,9087.763334575453,8160.879737452455,9620.879825792812,4787.6960352847445,9639.514120001539,6387.170992399516,7530.513562654193,10145.526183278937,-8318.988900435597,-16865.918510838557,-3056.526184082031,-3437.431235062448,-19806.811684056327,-3410.201323659796,-18304.90011917917
-21149.045542666783,-20428.83320858604,-2060.626682482268,4456.23146860223,-1709.461212158203,-18542.31483057925,-4260.038074694181,9670.822243941457,6809.1718774092815,6346.953542608963,4528.572684840152,9006.95198460629,9011.90858138235,8733.084327296207,10595.258913542091,9096.296210038032,2943.2146172774465,8636.96399487947,9088.704460545587,8161.883605153936,9621.695468300266,4788.32345259817,9640.455245971676,6387.735667981598,7530.576304385536,10146.279084055046,-8310.895217092413,-16854.56225746556,-3052.1342628880548,-3434.73334061472,-19814.27795008609,-3413.2129267642367,-18306.15495380602
-21147.602482845905,-20427.70385742187,-2058.9326557360196,4457.172594572368,-1708.959278307463,-18541.624671534482,-4258.657756604646,9671.198694329512,6807.979784513774,6346.13790010151,4529.513810810289,9006.387309024209,9011.594872725635,8732.143201326067,10594.255045840611,9096.170726575347,2941.332365337171,8635.395451595907,9088.641718814244,8161.193446109168,9620.817084061471,4786.441200657894,9639.514120001539,6386.355349892064,7528.254860325862,10144.710540771483,-8310.079574584961,-16842.955037167198,-3051.8832959626848,-3431.3452871222244,-19822.05792477256,-3414.467761391087,-18308.727364791062
-21147.602482845905,-20427.327407033816,-2057.9915297658818,4457.23533630371,-1709.9004042776005,-18542.628539235968,-4258.4695314106175,9670.947727404142,6806.160274304841,6344.757582011976,4530.329453317742,9005.634408248097,9011.092938874895,8731.390300549958,10593.062952945103,9096.170726575347,2940.0775307103204,8634.140616969058,9089.080910933644,8161.130704377825,9619.813216359991,4784.684432180304,9638.447510568718,6385.037773533872,7526.372608385587,10142.64006363718,-8312.401018644636,-16838.31214904785,-3051.8832959626848,-3428.2082005550983,-19827.641938862045,-3416.350013331363,-18312.429126940275
-21147.853449771275,-20426.888214914416,-2057.050403795744,4456.796144184313,-1711.5944310238483,-18544.0088573255,-4258.908723530016,9670.696760478771,6804.466247558593,6343.87919777318,4531.1450958251935,9005.508924785412,9010.591005024156,8731.076591893245,10593.000211213763,9096.42169350072,2939.952047247635,8633.764166581002,9089.645586515728,8161.5698964972225,9619.56224943462,4784.119756598221,9638.447510568718,6384.7868066085,7526.1843831915585,10141.949904592411,-8314.220528853566,-16834.359419973272,-3050.440236141807,-3427.329816316303,-19828.26935617547,-3417.6048479582128,-18314.248637149205
-21150.363119024976,-20428.017566078583,-2058.3052384225944,4454.160991467928,-1715.170709710372,-18547.33416908665,-4260.100816425524,9668.500799881784,6801.580127916837,6342.247912758275,4529.451069078947,9004.065864964534,9008.395044427169,8729.570790341026,10592.686502557051,9094.664925023128,2938.8226960834695,8632.634815416837,9088.767202276931,8160.377803601716,9618.746606927169,4783.115888896741,9638.51025230006,6384.975031802528,7527.0000256990115,10142.389096711808,-8317.671324077404,-16826.32847836143,-3048.9971763209287,-3430.6551280774565,-19823.312759399407,-3411.4561582866463,-18312.30364347759
-21157.139226009967,-20433.22512978001,-2063.8265107807356,4447.949560065018,-1721.6958497699936,-18554.298501265675,-4264.053545500104,9662.791302329617,6796.749014603463,6338.295183683696,4524.118021914833,8999.548460307873,9003.124738994396,8725.68080299779,10589.800382915295,9090.02203690378,2935.183675665604,8629.246761924342,9085.692857441149,8156.676041452507,9615.484036897356,4780.292510986327,9636.628000359786,6383.78293890702,7526.749058773643,10141.573454204356,-8327.27080897281,-16824.13251776444,-3050.7539447985196,-3437.933168913188,-19814.968109130852,-3403.048766286749,-18307.91172228361
-21165.107425890474,-20440.189461959035,-2071.1672933478103,4441.298936542711,-1728.660181949013,-18560.760899593955,-4269.135625738846,9656.328904001335,6791.66693436472,6333.90326248972,4518.534007825348,8994.278154875103,8997.415241442228,8721.665332191867,10586.286845960114,9085.128181859063,2930.8544962029705,8625.48225804379,9082.05383702328,8152.848795840614,9611.405824360094,4777.092682687859,9633.74188071803,6382.088912160772,7525.1805154900785,10139.816685726768,-8338.313353689091,-16833.418294003135,-3056.149733693976,-3444.70927589818,-19805.11765731008,-3403.613441868832,-18302.64141685084
-21167.491611681486,-20442.008972167965,-2073.8651877955385,4440.106843647203,-1729.7895331131783,-18560.384449205896,-4269.637559589585,9655.074069374483,6791.227742245322,6334.028745952405,4517.592881855211,8993.776221024362,8997.47798317357,8722.230007773951,10586.726038079512,9085.25366532175,2930.6035292776005,8626.423384013926,9082.179320485968,8153.413471422696,9611.84501647949,4777.908325195312,9634.306556300113,6384.033905832392,7526.372608385587,10141.510712473015,-8341.324956793533,-16843.58245448062,-3060.1024627685542,-3444.20734204744,-19796.773007041527,-3408.130846525493,-18297.433853149407
-21164.29178338301,-20438.809143869497,-2071.292776810495,4443.808605796412,-1724.8329363371195,-18555.114143773128,-4266.563214753803,9659.340507105777,6795.682405170641,6338.420667146381,4520.918193616365,8997.791691830284,9002.873772069026,8726.308220311214,10589.988608109323,9090.084778635122,2934.681741814864,8631.568205984015,9086.194791291888,8157.617167422645,9616.927096718233,4782.174762926603,9638.447510568718,6389.053244339792,7531.140979967618,10146.279084055046,-8337.372227718955,-16852.24081340589,-3061.608264320774,-3439.125261808696,-19796.08284799676,-3411.5816417493315,-18297.245627955384
-21158.331318905475,-20435.10738172029,-2066.398921765779,4448.075043527703,-1718.6215049342104,-18550.283030459752,-4264.555479350843,9664.42258734452,6800.576260215357,6342.436137952302,4525.435598273026,9001.681679173518,9007.95585230777,8729.508048609683,10592.310052168996,9094.72766675447,2939.07366300884,8635.70916025262,9090.147520366465,8161.5698964972225,9621.820951762951,4785.876525075812,9641.710080598528,6392.755006489,7535.219192504883,10150.169071398283,-8330.596120733962,-16857.448377107317,-3061.106330470034,-3436.803817749023,-19801.35315342953,-3415.220662167197,-18303.33157589561
-21152.810046547336,-20432.472229003903,-2062.1952257658304,4450.647454512747,-1714.919742785002,-18547.64787774337,-4263.9280620374175,9666.744031404192,6802.7094790810015,6343.314522191097,4528.698168302837,9002.622805143657,9009.398912128649,8730.072724191763,10592.561019094366,9096.233468306691,2940.5794645610604,8636.21109410336,9090.96316287392,8162.448280736019,9623.138528121144,4786.441200657894,9641.772822329873,6392.8804899516845,7535.407417698909,10150.796488711707,-8324.008238942999,-16852.366296868575,-3057.5927935148534,-3437.054784674393,-19805.180399041423,-3416.851947182103,-18308.727364791062
-21151.304244995117,-20430.966427451684,-2061.316841527035,4450.333745856034,-1715.421676635742,-18547.020460429943,-4263.73983684339,9665.489196777342,6801.454644454152,6341.745978907536,4528.384459646124,9000.364102815325,9007.516660188372,8728.504180908201,10591.055217542144,9094.664925023128,2939.261888202868,8633.889650043686,9088.51623535156,8160.315061870373,9621.256276180868,4783.868789672851,9639.451378270196,6390.182595503957,7532.395814594469,10148.537786383376,-8321.875020077354,-16845.088256032843,-3054.2674817537004,-3436.615592554996,-19808.25474387721,-3417.667589689556,-18309.166556910463
-21153.31198039808,-20430.088043212887,-2062.5716761538856,4447.76133487099,-1718.7469883968954,-18548.275295056792,-4264.931929738897,9662.603077135587,6798.505783081054,6339.236309653834,4525.561081735711,8997.289757979543,9004.505057083932,8725.994511654502,10588.357323094417,9092.029772306743,2936.877702411852,8630.878046939246,9085.50463224712,8157.366200497274,9618.370156539113,4780.417994449012,9636.377033434415,6387.108250668173,7529.3214697586845,10145.526183278937,-8323.31807989823,-16843.080520629883,-3053.5773227089326,-3437.180268137078,-19814.528917011456,-3419.863550286544,-18309.292040373148
-21156.825517353256,-20430.715460526317,-2064.893120213558,4443.934089259097,-1722.6369757401314,-18552.039798937345,-4268.319983231393,9658.96405671772,6794.992246125873,6335.785514429996,4522.173028243216,8994.403638337786,9001.242487054122,8722.669199893347,10584.46733575118,9089.018169202302,2933.740615844726,8627.48999344675,9083.05770472476,8154.542822586861,9615.107586509303,4777.5946165386,9632.98897994192,6384.159389295075,7526.560833579614,10142.451838443152,-8324.384689331055,-16843.33148755525,-3054.5184486790704,-3440.882030286287,-19822.999050742696,-3420.1145172119136,-18313.495736373097
-21158.9587362189,-20432.095778615847,-2066.398921765779,4442.0518373188215,-1724.5819694117495,-18555.42785242984,-4270.453202097039,9656.893579583417,6793.360961110968,6333.275845176295,4520.855451885022,8993.148803710934,8999.422976845188,8720.473239296358,10582.271375154192,9087.386884187395,2931.6073969790805,8625.795966700502,9081.551903172542,8153.350729691355,9613.53904322574,4776.967199225174,9631.232211464328,6382.465362548827,7525.43148241545,10141.071520353617,-8322.56517912212,-16845.150997764184,-3054.455706947728,-3444.081858584755,-19828.457581369497,-3413.965827540347,-18316.0054056268
-21157.327451204,-20431.656586496447,-2064.391186362818,4444.937956960577,-1722.3232670834188,-18554.235759534327,-4267.818049380653,9659.528732299801,6796.435305946751,6335.722772698653,4523.804313258121,8996.348632009405,9001.869904367546,8723.171133744088,10585.40846172132,9089.833811709752,2934.1170662327813,8629.058536730314,9083.371413381476,8156.613299721164,9616.80161325555,4780.857186568411,9634.118331106085,6385.2259987278985,7528.882277639288,10143.957639995371,-8319.30260909231,-16846.782282779088,-3052.3852298134248,-3441.885897987767,-19827.892905787412,-3403.613441868832,-18309.54300729852
-21157.45293466668,-20433.978030556125,-2063.763769049393,4447.133917557565,-1720.9429489938834,-18553.67108395225,-4266.186764365748,9662.352110210217,6799.446909051192,6338.608892340409,4526.251240780479,8999.799427233243,9004.379573621249,8726.496445505241,10588.608290019787,9092.531706157482,2937.2541527999074,8632.321106760124,9086.00656609786,8160.315061870373,9620.31515021073,4784.307981792249,9636.753483822473,6388.676793951737,7532.4585563258115,10146.59279271176,-8322.690662584806,-16844.460838719417,-3053.640064440275,-3439.8781625848064,-19822.559858623303,-3400.4136135703634,-18299.06513816432
-21161.907597592,-20440.69139580977,-2067.653756392629,4444.5615065725215,-1723.8290686356393,-18558.313972071595,-4270.3904603656965,9660.846308657998,6797.439173648231,6336.538415206105,4524.431730571546,8998.544592606393,9002.560063412313,8725.116127415706,10586.726038079512,9091.214129799288,2935.6228677850017,8630.250629625822,9085.316407053093,8159.311194168893,9618.809348658511,4782.425729851972,9634.181072837428,6387.735667981598,7530.952754773591,10144.710540771483,-8332.603856136924,-16840.257142719467,-3060.792621813322,-3443.9563751220694,-19816.85036107113,-3408.6327803762333,-18294.98692562705
-21164.73097550241,-20444.76960834704,-2071.41826027318,4441.800870393451,-1726.0250292326273,-18561.827509026774,-4275.409798873097,9658.211155941613,6794.302087081105,6333.464070370322,4520.980935347708,8995.470247770609,8999.611202039214,8721.979040848579,10583.777176706411,9088.265268426192,2932.2348142925057,8626.48612574527,9082.367545679997,8156.048624139082,9614.982103046616,4779.225901553505,9630.416568956876,6384.410356220445,7527.125509161698,10141.322487278985,-8338.50157888312,-16839.190533286644,-3068.8863051565068,-3449.791356136924,-19813.52504930998,-3419.549841629831,-18299.31610508969
-21162.97420702482,-20444.39315795898,-2071.41826027318,4441.863612124794,-1725.2093867251747,-18560.635416131274,-4277.668501201429,9657.646480359528,6793.862894961708,6332.585686131527,4519.1614251387755,8994.152671412417,8998.41910914371,8720.786947953073,10583.212501124332,9086.633983411284,2930.979979665656,8624.541132073653,9079.606909500924,8154.229113930149,9612.911625912313,4778.34751731471,9628.973509135998,6382.402620817485,7524.866806833366,10139.753943995423,-8336.305618286131,-16839.692467137385,-3072.3998421116876,-3452.67747577868,-19810.450704474195,-3424.25547148052,-18305.33931129857
-21159.586153532327,-20442.573647750047,-2068.971332750822,4442.867479826275,-1723.8290686356393,-18558.25123034025,-4277.166567350689,9657.70922209087,6794.490312275133,6332.585686131527,4518.722233019376,8993.587995830334,8997.603466636254,8720.72420622173,10584.216368825812,9085.50463224712,2929.9133702328327,8623.349039178145,9077.47369063528,8153.225246228669,9612.033241673518,4778.033808657997,9628.597058747942,6381.336011384662,7523.549230475174,10138.875559756629,-8332.03918055484,-16841.01004349558,-3069.7646893953015,-3452.865700972707,-19807.56458483244,-3421.432093570106,-18307.53527189556
-21156.072616577145,-20438.934627332183,-2065.8342461836965,4444.122314453124,-1722.2605253520762,-18556.9963957134,-4274.594156365645,9658.273897672952,6794.490312275133,6333.464070370322,4518.973199944747,8993.337028904964,8997.2270162482,8720.849689684414,10585.72217037803,9085.065440127722,2928.1566017552423,8622.909847058745,9076.658048127823,8152.221378527187,9611.280340897409,4777.155424419201,9628.5343170166,6380.457627145867,7522.482621042351,10138.248142443204,-8328.713868793686,-16844.711805644787,-3063.427774529708,-3449.0384553608137,-19807.43910136976,-3416.03630467465,-18304.90011917917
-21152.99827174136,-20434.040772287462,-2063.0736100046256,4445.690857736688,-1720.5037568744858,-18556.619945325343,-4273.151096544767,9659.842440956516,6794.302087081105,6334.656163265829,4520.102551108912,8994.02718794973,8997.728950098943,8720.849689684414,10586.4123294228,9085.50463224712,2926.9645088597345,8623.349039178145,9077.222723709907,8151.844928139134,9610.903890509351,4776.026073255037,9628.910767404655,6380.206660220497,7522.3571375796655,10138.310884174549,-8324.57291452508,-16844.900030838813,-3057.404568320826,-3442.450573569849,-19809.509578504058,-3414.655986585115,-18302.07674126876
-21151.24150326377,-20430.27626840692,-2060.8776494076374,4446.569241975481,-1720.3782734118008,-18555.80430281789,-4273.339321738795,9661.536467702765,6793.800153230365,6335.346322310596,4521.922061317845,8995.344764307925,8998.293625681023,8720.786947953073,10586.224104228771,9086.320274754573,2926.9645088597345,8623.725489566199,9078.352074874074,8152.221378527187,9611.029373972038,4775.084947284899,9629.475442986739,6380.771335802579,7523.42374701249,10139.001043219312,-8320.11825159976,-16831.84975071957,-3052.8871636641647,-3436.552850823653,-19809.886028892117,-3414.655986585115,-18300.570939716537
-21150.9905363384,-20428.080307809927,-2059.309106124075,4446.318275050113,-1722.4487505461038,-18553.106408370168,-4273.088354813424,9662.226626747533,6792.357093409488,6335.66003096731,4523.804313258121,8996.03492335269,8998.04265875565,8720.661464490388,10586.098620766086,9086.759466873971,2927.5291844418166,8623.788231297542,9079.544167769582,8152.660570646585,9611.092115703379,4775.022205553556,9630.040118568819,6381.775203504059,7524.615839907997,10139.62846053274,-8316.10278079384,-16810.329336869087,-3049.248143246299,-3432.662863480417,-19807.12539271304,-3409.0719724956302,-18297.496594880755
-21153.43746386076,-20429.39788416812,-2060.8776494076374,4444.122314453124,-1725.9622875012847,-18550.910447773174,-4274.029480783563,9660.030666150544,6788.906298185649,6334.467938071803,4523.929796720806,8994.21541314376,8996.160406815377,8718.904696012798,10584.906527870578,9085.50463224712,2926.5880584716792,8622.470654939347,9079.293200844211,8151.531219482421,9609.774539345188,4774.5830134341595,9629.161734330026,6381.712461772718,7523.988422594572,10138.875559756629,-8316.291005987869,-16798.533891376694,-3048.4952424701887,-3433.164797331157,-19804.051047877256,-3399.848937988281,-18294.234024850943
-21158.26857717413,-20434.730931332237,-2064.202961168791,4441.047969617342,-1728.660181949013,-18551.16141469855,-4276.539150037264,9656.517129195363,6785.95743681255,6332.397460937499,4522.423995168585,8991.643002158717,8993.838962755704,8716.457768490438,10583.149759392987,9083.622380306846,2925.0195151881167,8620.588402999076,9077.348207172594,8149.586225810802,9608.39422125565,4773.830112658048,9627.655932777807,6380.896819265265,7522.482621042351,10137.68346686112,-8324.070980674342,-16804.745322779603,-3050.189269216437,-3437.744943719161,-19802.294279399666,-3392.6336388838918,-18292.539998104698
-21162.72324009945,-20440.75413754112,-2066.6498886911486,4438.475558632297,-1729.915016575863,-18552.8554414448,-4279.048819290963,9654.383910329716,6786.082920275236,6330.8289176539365,4520.6672266909945,8990.450909263209,8992.52138639751,8715.579384251643,10582.208633422848,9082.304803948655,2924.705806531404,8619.898243954307,9074.650312724863,8148.582358109322,9608.143254330285,4773.641887464021,9626.652065076323,6379.767468101099,7521.792461997584,10136.930566085011,-8336.054651360762,-16825.575577585318,-3053.8910313656447,-3443.579924734014,-19800.349285728047,-3394.2021821674543,-18293.418382343487
-21163.287915681536,-20442.197197361995,-2066.8381138851764,4438.7265255576685,-1728.785665411698,-18552.47899105674,-4278.044951589483,9655.387778031196,6790.035649349814,6332.209235743472,4520.918193616365,8992.082194278113,8994.278154875103,8718.151795236687,10583.526209781043,9082.994962993422,2927.2154757851044,8621.96872108861,9074.022895411441,8149.9626761988575,9610.213731464586,4775.398655941612,9627.906899703175,6380.143918489153,7523.486488743831,10138.12265898052,-8340.760281211451,-16845.401964689554,-3058.533919484992,-3444.6465341668377,-19800.161060534025,-3403.1742497494342,-18295.049667358395
-21158.89599448756,-20438.118984824727,-2065.520537526984,4442.240062512848,-1724.9584197998045,-18549.71835487767,-4273.151096544767,9658.399381135636,6795.43143824527,6336.4756734747625,4522.110286511873,8995.282022576583,8998.670076069078,8723.108392012746,10586.161362497429,9085.316407053093,2931.481913516396,8626.423384013926,9075.842405620371,8152.7860541092705,9613.727268419769,4778.661225971422,9630.981244538958,6382.716329474198,7526.749058773643,10141.447970741672,-8333.670465569745,-16850.170336271585,-3061.043588738692,-3439.3762287340664,-19805.80781635485,-3411.016966167249,-18295.426117746447
-21154.25310636821,-20434.35448094418,-2065.6460209896686,4445.063440423262,-1722.1977836207338,-18548.77722890753,-4268.508208425421,9659.340507105777,6797.250948454203,6339.110826191149,4520.855451885022,8996.348632009405,9000.991520128751,8725.68080299779,10587.102488467566,9086.132049560543,2933.489648919356,8628.933053267629,9076.53256466514,8153.538954885383,9614.856619583932,4779.665093672903,9632.236079165808,6384.159389295075,7527.878409937806,10143.016514025236,-8325.451298763877,-16846.28034892835,-3062.172939902857,-3436.4901090923104,-19815.34455951891,-3418.4832321970084,-18296.61821064196
-21150.049410368265,-20430.903685720343,-2064.453928094161,4447.698593139648,-1720.2527899491158,-18548.212553325448,-4264.931929738897,9660.15614961323,6797.313690185546,6340.616627743369,4520.541743228308,8996.850565860144,9001.74442090486,8726.433703773897,10588.42006482576,9087.324142456051,2934.2425496954666,8630.062404431794,9077.975624486018,8154.040888736122,9615.233069971988,4779.4141267475325,9633.553655524,6385.288740459241,7528.317602057205,10144.083123458058,-8321.247602763926,-16837.30828134637,-3060.290687962582,-3436.866559480365,-19822.183408235247,-3422.8124116596414,-18297.747561806125
-21146.033939562345,-20426.13531413831,-2061.0658746016647,4450.27100412469,-1718.1823128148128,-18546.5185265792,-4263.9280620374175,9662.352110210217,6797.815624036286,6341.683237176192,4522.423995168585,8998.04265875565,9002.371838218289,8726.810154161954,10590.616025422749,9089.143652664985,2934.8072252775487,8630.940788670589,9080.861744127775,8155.358465094314,9616.111454210783,4779.225901553505,9636.063324777702,6386.480833354749,7529.133244564658,10145.777150204305,-8318.675191778882,-16824.822676809206,-3055.0203825298104,-3435.7372083162004,-19822.49711689196,-3420.240000674599,-18298.751429507603
-21145.594747442945,-20423.249194496555,-2059.6228147807874,4449.706328542608,-1718.0568293521278,-18547.522394280684,-4267.629824186625,9662.854044060958,6796.749014603463,6340.177435623971,4522.925929019325,8997.666208367598,9001.43071224815,8725.618061266447,10590.741508885432,9088.829944008272,2933.364165456672,8630.376113088505,9081.865611829255,8155.107498168944,9615.672262091384,4778.222033852025,9637.506384598579,6385.916157772665,7528.505827251232,10145.90263366699,-8319.365350823653,-16817.670119436163,-3051.1303951865743,-3435.423499659488,-19816.222943757708,-3414.969695241827,-18301.261098761304
-21148.98280093544,-20424.441287392063,-2060.814907676295,4446.694725438168,-1719.8135978297182,-18551.34963989257,-4272.837387888055,9661.285500777394,6794.364828812448,6337.228574250873,4522.173028243216,8996.097665084035,8999.673943770558,8723.67306759483,10589.110223870528,9087.135917262025,2930.5407875462574,8628.7448280736,9080.987227590462,8153.6016966167235,9614.040977076482,4777.343649613229,9637.25541767321,6383.845680638362,7526.749058773643,10144.5850573088,-8323.129854704204,-16816.85447692871,-3049.8128188283818,-3437.368493331105,-19808.756677727946,-3408.3190717195207,-18302.704158582183
-21154.002139442844,-20428.895950317376,-2063.136351735968,4443.745864065068,-1722.5114922774465,-18555.051402041783,-4276.288183111893,9658.901314986377,6792.106126484116,6334.467938071803,4521.169160541735,8993.96444621839,8997.540724904913,8721.477106997838,10587.47893885562,9085.128181859063,2928.1566017552423,8626.297900551242,9079.293200844211,8151.656702945105,9612.033241673518,4776.59074883712,9635.624132658304,6381.336011384662,7524.992290296052,10142.89103056255,-8325.827749151931,-16818.04656982422,-3051.067653455232,-3439.125261808696,-19806.184266742905,-3403.425216674804,-18301.01013183593
-21158.45680236816,-20434.730931332237,-2065.9597296463808,4441.298936542711,-1725.7740623072573,-18557.8747799522,-4277.480276007401,9656.20342053865,6789.596457230416,6331.895527086759,4519.412392064144,8991.01558484529,8994.591863531814,8718.590987356085,10585.72217037803,9082.49302914268,2925.960641158254,8622.909847058745,9077.03449851588,8148.896066766035,9609.272605494449,4774.394788240131,9632.54978782252,6378.763600399619,7523.172780087119,10140.19313611482,-8326.957100316096,-16823.003166600276,-3055.710541574578,-3440.693805092259,-19806.937167519012,-3405.3702103464225,-18298.62594604492
-21159.272444875616,-20438.74640213816,-2067.1518225418886,4440.671519229286,-1727.09163866545,-18559.066872847703,-4276.413666574577,9654.823102449114,6788.153397409539,6330.201500340511,4517.718365317896,8989.007849442329,8992.333161203484,8716.081318102384,10584.781044407891,9080.297068545693,2923.827422292609,8620.023727416992,9075.02676311292,8146.135430586964,9606.57471104672,4771.63415206106,9629.914635106135,6376.881348459344,7521.3532698781855,10137.18153301038,-8325.388557032535,-16832.85361842105,-3059.7887541118416,-3442.011381450452,-19807.12539271304,-3410.0130984657685,-18296.241760253903
-21156.009874845804,-20438.997369063527,-2065.5832792583265,4442.302804244192,-1725.5858371132297,-18557.561071295484,-4274.154964246248,9655.889711881937,6788.906298185649,6330.201500340511,4516.965464541786,8989.384299830386,8991.893969084087,8714.951966938219,10585.032011333264,9079.48142603824,2922.5725876657584,8618.7061510588,9073.458219829357,8144.504145572059,9604.943426031812,4769.814641852127,9628.220608359889,6375.501030369808,7519.596501400595,10134.797347219366,-8320.494701987818,-16841.32375215229,-3059.851495843184,-3441.446705868369,-19806.37249193693,-3412.0835756000715,-18293.60660753752
-21151.555211920484,-20437.61705097399,-2062.822643079256,4444.624248303865,-1723.2643930535567,-18554.42398472836,-4272.147228843287,9658.211155941613,6790.9140335886095,6331.393593236019,4517.279173198498,8991.643002158717,8992.835095054224,8715.20293386359,10585.596686915347,9079.98335988898,2922.509845934416,8618.392442402086,9072.705319053248,8144.441403840717,9604.504233912416,4769.187224538702,9627.091257195725,6374.497162668328,7518.027958117032,10133.291545667144,-8317.294873689347,-16845.401964689554,-3056.651667544716,-3439.564453928094,-19803.92556441457,-3412.648251182154,-18293.794832731543
-21148.104416696646,-20436.550441541167,-2059.999265168842,4446.75746716951,-1722.1350418893912,-18552.039798937345,-4270.641427291066,9660.469858269942,6792.7335437975435,6332.899394788239,4518.534007825348,8994.340896606443,8994.21541314376,8716.081318102384,10586.161362497429,9081.175452784488,2923.262746710526,8618.7061510588,9073.207252903987,8145.821721930252,9604.755200837786,4769.312708001387,9626.903032001695,6374.05797054893,7517.2123156095795,10132.72687008506,-8318.173257928145,-16848.664534719366,-3053.138130589535,-3438.184135838558,-19802.231537668325,-3413.8403440776615,-18297.93578700015
-21145.34378051757,-20434.29173921284,-2056.736695139032,4449.141652960526,-1721.7585915013362,-18551.035931235863,-4269.323850932874,9662.9167857923,6794.678537469161,6334.844388459856,4521.106418810392,8997.289757979543,8996.41137374075,8717.649861385948,10587.47893885562,9083.371413381476,2924.8940317254314,8620.27469434236,9075.528696963662,8148.205907721269,9606.13551892732,4770.818509553607,9628.597058747942,6375.124579981753,7518.153441579717,10134.044446443255,-8319.365350823653,-16848.413567793996,-3051.067653455232,-3437.368493331105,-19807.94103522049,-3415.5971125552524,-18303.268834164268
-21144.339912816096,-20431.40561957108,-2055.1681518554688,4450.5219710500605,-1722.0095584267062,-18550.84770604184,-4269.763043052271,9664.297103881834,6795.180471319901,6335.534547504625,4523.427862870065,8998.795559531764,8997.97991702431,8718.653729087428,10588.294581363074,9084.751731471011,2925.5841907701993,8621.466787237869,9077.47369063528,8149.460742348118,9607.390353554172,4772.073344180458,9630.54205241956,6376.504898071288,7519.22005101254,10135.863956652189,-8320.933894107215,-16841.01004349558,-3050.565719604492,-3438.0586523758734,-19820.0501893696,-3417.1656558388154,-18308.09994747764
-21146.347648219056,-20430.966427451684,-2056.8621786017166,4449.204394691868,-1723.9545520983243,-18551.098672967208,-4272.4609375,9662.854044060958,6792.608060334856,6333.464070370322,4523.678829795435,8997.101532785513,8996.72508239746,8717.587119654607,10587.41619712428,9083.559638575503,2923.639197098581,8620.462919536387,9076.4698229338,8148.080424258583,9606.38648585269,4771.194959941663,9630.604794150904,6375.81473902652,7518.2161833110595,10135.42476453279,-8322.816146047491,-16830.971366480775,-3050.8166865298617,-3440.4428381668886,-19827.892905787412,-3417.855814883583,-18310.735100194022
-21150.739569413032,-20433.350613242696,-2061.128616333008,4445.690857736688,-1727.4053473221627,-18552.290765862715,-4275.598024067125,9658.901314986377,6788.718072991622,6329.950533415141,4521.79657785516,8993.462512367649,8993.148803710934,8715.328417326273,10585.345719989977,9080.359810277034,2920.564852262798,8618.01599201403,9073.70918675473,8145.194304616827,9603.437624479591,4768.998999344673,9628.973509135998,6373.430553235505,7515.95748098273,10133.103320473116,-8322.56517912212,-16822.501232749535,-3052.3852298134248,-3442.074123181794,-19824.379368832237,-3417.4166227641854,-18309.85671595523
-21156.825517353256,-20438.05624309339,-2066.900855616519,4440.546035766601,-1731.9854937101663,-18555.490594161183,-4278.986077559622,9653.317300896895,6784.828085648385,6326.060546071904,4517.279173198498,8988.631399054275,8988.254948666221,8712.316814221833,10582.585083810904,9076.0306308144,2917.6159908897,8614.690680252877,9070.50935845626,8141.429800736275,9599.233928479645,4766.17562143426,9626.27561468827,6370.418950131064,7513.510553460371,10130.468167756731,-8322.31421219675,-16817.481894242133,-3055.898766768605,-3443.015249151932,-19812.58392333984,-3414.8442117791424,-18305.33931129857
-21162.660498368106,-20444.33041622764,-2071.543743735865,4435.463955527857,-1736.3774149041424,-18560.44719093724,-4282.813323171515,9647.98425373278,6781.189065230519,6322.484267385382,4512.510801616468,8983.549318815532,8983.988510934929,8709.054244192022,10579.698964169149,9071.826934814451,2914.604387785259,8611.616335417095,9068.187914396589,8137.853522049752,9595.155715942383,4763.352243523848,9623.577720240542,6368.222989534076,7511.628301520096,10128.585915816457,-8324.133722405682,-16818.10931155556,-3058.9731116043886,-3444.7720176295225,-19800.035577071336,-3409.4484228836855,-18298.312237388207
-21165.044684159126,-20449.036046078327,-2072.359386243318,4433.644445318924,-1738.134183381733,-18564.399920011816,-4285.072025499845,9646.227485255193,6779.683263678299,6320.978465833161,4511.883384303042,8981.604325143913,8982.859159770764,8707.73666783383,10578.318646079617,9070.5721001876,2913.1613279643807,8610.612467715613,9067.99968920256,8136.598687422902,9593.775397852847,4762.66208447908,9622.511110807718,6368.097506071391,7511.440076326067,10128.460432353771,-8326.141457808642,-16826.391220092773,-3059.0985950670743,-3447.093461689196,-19795.26720548931,-3405.3702103464225,-18294.610475239
-21163.72710780093,-20450.165397242494,-2070.288909109015,4435.401213796515,-1736.8793487548824,-18565.592012907327,-4284.821058574476,9647.921512001436,6781.000840036492,6322.421525654039,4514.267570094057,8983.361093621505,8984.992378636409,8708.928760729337,10578.4441295423,9072.705319053248,2914.416162591231,8612.118269267836,9069.191782098067,8137.853522049752,9595.845874987148,4764.356111225328,9623.389495046513,6369.979758011666,7512.5694274902335,10130.028975637333,-8326.26694127133,-16839.31601674933,-3057.4673100521686,-3449.1011970921563,-19800.53751092208,-3408.1935882568355,-18297.30836968673
-21162.033081054684,-20449.977172048468,-2069.1595579448494,4437.408949199476,-1735.2480637399772,-18566.031205026724,-4284.193641261049,9649.490055285,6782.820350245424,6324.429261057,4514.644020482113,8984.678669979698,8987.376564427424,8710.497304012899,10578.381387810956,9075.02676311292,2916.737606650904,8614.063262939453,9070.383874993575,8139.1710984079455,9598.982961554275,4765.736429314864,9624.76981313605,6372.112976877313,7513.76152038574,10131.66026065224,-8326.643391659385,-16852.178071674545,-3057.279084858141,-3450.167806524979,-19809.07038638466,-3416.977430644788,-18301.888516074727
-21162.848723562136,-20451.29474840666,-2070.602617765728,4437.220724005448,-1735.6872558593748,-18567.537006578943,-4285.197508962529,9648.67441277755,6782.318416394684,6324.68022798237,4512.636285079153,8983.800285740901,8987.627531352795,8710.622787475584,10577.314778378131,9075.214988306947,2917.6159908897,8614.627938521537,9071.011292307,8139.484807064658,9600.614246569183,4765.17175373278,9625.334488718132,6373.30506977282,7514.263454236481,10132.224936234323,-8331.349021510074,-16862.71868254009,-3061.106330470034,-3451.2344159578015,-19814.340691817437,-3427.0788493909326,-18306.59414592542
-21163.91533299496,-20451.922165720083,-2071.104551616468,4437.408949199476,-1735.8754810534024,-18567.160556190887,-4285.385734156558,9648.423445852177,6781.44003215589,6324.993936639083,4512.6990268104955,8983.988510934929,8987.941240009508,8711.061979594982,10578.318646079617,9075.905147351716,2918.306149934467,8615.569064491672,9073.01902770996,8141.429800736275,9602.245531584083,4765.485462389493,9626.401098150953,6375.187321713095,7515.95748098273,10133.730737786544,-8337.309485987613,-16863.910775435597,-3064.9963178132707,-3452.7402175100224,-19816.913102802475,-3431.5962540475944,-18310.233166343285
-21161.844855860654,-20449.036046078327,-2068.720365825452,4439.793134990491,-1733.9304873817844,-18563.082343653623,-4283.189773559569,9650.995856837222,6782.94583370811,6327.001672042043,4516.149822034334,8987.062855770713,8990.137200606494,8713.634390580026,10581.832183034796,9078.728525262128,2920.62759399414,8618.078733745373,9076.4698229338,8145.821721930252,9605.13165122584,4768.434323762592,9628.848025673313,6378.638116936934,7519.847468325965,10137.056049547697,-8337.936903301037,-16856.19354248047,-3063.427774529708,-3453.3676348234476,-19822.371633429277,-3432.160929629677,-18312.429126940275
-21155.947133114456,-20441.56978004857,-2064.328444631476,4444.436023109837,-1729.4758244564655,-18555.992528011924,-4278.044951589483,9656.266162269992,6787.7769470214835,6331.456334967362,4521.231902273077,8992.646869860195,8994.591863531814,8718.841954281454,10586.97700500488,9083.936088963555,2925.5841907701993,8622.470654939347,9081.300936247171,8152.095895064503,9609.649055882503,4774.143821314761,9633.239946867288,6384.535839683131,7526.121641460216,10142.577321905836,-8330.909829390675,-16846.09212373432,-3057.530051783511,-3450.4187734503494,-19829.461449070976,-3432.537380017732,-18311.676226164163
-21148.920059204094,-20432.974162854644,-2058.9326557360196,4449.769070273951,-1723.8290686356393,-18547.836102937395,-4271.268844604492,9663.105010986326,6794.302087081105,6337.66776637027,4526.439465974506,8998.795559531764,9000.364102815325,8724.99064395302,10592.749244288394,9090.273003829152,2931.670138710423,8628.180152491519,9086.947692068,8158.49555166144,9614.856619583932,4780.543477911698,9639.0121861508,6391.50017186215,7533.399682295949,10148.976978502775,-8320.11825159976,-16832.477168032994,-3051.1303951865743,-3443.3916995399873,-19829.21048214561,-3427.0788493909326,-18304.90011917917
-21144.716363204152,-20428.39401646664,-2054.5407345420435,4453.282607229132,-1719.437147441663,-18542.816764429997,-4266.186764365748,9668.312574687758,6798.944975200451,6341.557753713507,4530.956870631168,9002.748288606339,9004.44231535259,8728.504180908201,10596.137297780888,9094.853150217155,2935.371900859632,8631.94465637207,9090.774937679893,8162.448280736019,9618.621123464483,4784.245240060905,9642.65120656867,6395.954834787469,7538.293537340665,10153.055191040035,-8311.710859599865,-16819.175920988382,-3045.1071889776927,-3436.1764004355978,-19820.552123220343,-3414.655986585115,-18295.300634283765
-21146.347648219056,-20429.83707628752,-2054.854443198756,4452.090514333624,-1719.4998891730056,-18544.573532907583,-4265.747572246351,9668.061607762384,6798.505783081054,6339.738243504574,4532.086221795333,9002.371838218289,9003.68941457648,8726.810154161954,10594.380529303298,9094.790408485811,2934.179807964124,8630.376113088505,9089.833811709752,8161.820863422595,9618.558381733139,4783.115888896741,9640.329762508994,6394.825483623304,7537.477894833213,10151.800356413187,-8311.083442286441,-16816.91721866005,-3043.03671184339,-3432.976572137129,-19810.76441313091,-3405.244726883737,-18288.712752492804
-21151.366986726454,-20434.479964406863,-2059.4345895867596,4447.635851408306,-1722.6369757401314,-18549.843838340355,-4268.947400544817,9663.795170031097,6794.866762663188,6334.718904997172,4528.6354265714945,8999.297493382503,8999.799427233243,8721.916299117238,10589.737641183952,9091.590580187343,2930.164337158202,8625.168549387077,9085.50463224712,8157.805392616674,9615.29581170333,4779.100418090819,9633.867364180715,6389.5551781905315,7532.270331131783,10146.090858861018,-8316.981165032637,-16828.838147615126,-3047.177666111996,-3433.541247719212,-19805.682332892164,-3405.746660734477,-18286.642275358496
-21154.190364636874,-20438.05624309339,-2062.9481265419404,4444.49876484118,-1724.5192276804069,-18552.102540668682,-4271.959003649259,9660.846308657998,6792.357093409488,6331.456334967362,4524.619955765573,8997.101532785513,8997.2270162482,8718.21453696803,10586.600554616827,9089.080910933644,2927.278217516447,8621.466787237869,9082.24206221731,8154.542822586861,9612.346950330231,4775.7751063296655,9628.973509135998,6384.7868066085,7527.313734355725,10140.946036890931,-8323.255338166886,-16844.27261352539,-3052.3852298134248,-3435.7372083162004,-19807.43910136976,-3411.9580921373868,-18289.277428074885
-21154.002139442844,-20439.68752810829,-2063.199093467311,4444.185056184467,-1724.5192276804069,-18550.157546997063,-4272.96287135074,9660.4071165386,6792.16886821546,6330.766175922594,4522.80044555664,8996.285890278063,8997.038791054172,8716.959702341177,10586.224104228771,9088.01430150082,2926.1488663522814,8620.71388646176,9081.112711053143,8153.225246228669,9610.966632240696,4774.143821314761,9627.844157971833,6382.402620817485,7524.741323370682,10138.6873345626,-8328.902093987715,-16850.170336271585,-3053.953773096988,-3437.1175264057356,-19814.02698316072,-3415.848079480623,-18294.735958701684
-21151.4297284578,-20438.934627332183,-2060.94039113898,4446.443758512798,-1723.1389095908714,-18546.45578484786,-4272.084487111944,9661.724692896792,6793.988378424393,6331.64456016139,4523.804313258121,8996.599598934774,8998.293625681023,8718.026311774001,10587.980872706363,9088.328010157535,2926.776283665707,8622.156946282637,9081.426419709856,8153.476213154038,9611.405824360094,4774.332046508788,9629.53818471808,6382.590846011512,7524.929548564709,10139.18926841334,-8330.345153808594,-16845.966640271636,-3052.25974635074,-3437.3057515997634,-19821.116798802424,-3417.667589689556,-18298.87691297029
-21149.17102612947,-20437.86801789936,-2059.6228147807874,4448.576977378443,-1721.9468166953636,-18544.636274638928,-4272.084487111944,9662.16388501619,6795.368696513928,6332.14649401213,4524.870922690943,8996.913307591489,8998.795559531764,8719.21840466951,10589.047482139184,9088.202526694848,2927.403700979132,8623.47452264083,9081.677386635225,8153.727180079408,9611.84501647949,4774.645755165501,9630.855761076273,6383.469230250308,7525.43148241545,10140.004910920792,-8326.329683002672,-16840.508109644838,-3051.7578124999995,-3441.2584806743416,-19826.26162077251,-3425.3848226446853,-18303.519801089635
-21151.17876153243,-20440.565912347087,-2062.1952257658304,4446.75746716951,-1723.7663269042966,-18547.522394280684,-4275.786249261153,9659.40324883712,6793.109994185596,6329.887791683798,4522.737703825298,8994.591863531814,8996.097665084035,8717.838086579974,10586.726038079512,9085.002698396382,2925.5841907701993,8621.780495894582,9079.795134694952,8151.719444676448,9609.774539345188,4772.63801976254,9629.161734330026,6381.712461772718,7523.674713937859,10138.310884174549,-8326.392424734015,-16840.382626182152,-3054.2674817537004,-3449.916839599609,-19829.27322387695,-3435.8626917788847,-18311.11155058208
-21153.500205592103,-20443.57751545153,-2063.8265107807356,4444.436023109837,-1726.2759961579973,-18550.659480847808,-4279.989945261102,9657.144546508787,6790.4120997378695,6327.6918310868095,4520.918193616365,8992.458644666169,8993.901704487047,8716.645993684466,10584.341852288497,9082.05383702328,2923.639197098581,8619.898243954307,9078.352074874074,8150.088159661543,9608.080512598943,4771.006734747635,9627.78141624049,6379.328275981702,7521.855203728926,10136.491373965611,-8330.282412077251,-16838.56311597322,-3053.3263557835626,-3453.93231040553,-19828.834031757557,-3433.290280793842,-18313.746703298468
-21150.112152099606,-20439.813011570976,-2060.0620069001848,4446.50650024414,-1725.2093867251747,-18547.96158640008,-4278.672368902909,9658.838573255038,6791.7296760960635,6329.511341295744,4523.051412482009,8994.089929681075,8995.909439890009,8718.904696012798,10585.659428646688,9083.183188187448,2924.517581337376,8621.2158203125,9080.04610162032,8151.405736019735,9609.272605494449,4772.826244956568,9629.53818471808,6379.516501175729,7522.41987931101,10137.557983398436,-8325.01210664448,-16826.5794452868,-3046.675732261256,-3448.5992632414163,-19824.06566017552,-3417.479364495528,-18306.280437268702
-21143.39878684596,-20431.656586496447,-2054.791701467413,4450.961163169459,-1721.6958497699936,-18541.750154997168,-4272.774646156712,9662.289368478874,6795.619663439297,6333.589553833007,4526.690432899876,8997.415241442228,8999.611202039214,8722.355491236636,10588.984740407843,9086.5084999486,2926.9645088597345,8623.97645649157,9082.367545679997,8153.350729691355,9611.280340897409,4775.900589792352,9631.922370509095,6381.02230272795,7523.800197400542,10139.565718801396,-8309.389415540192,-16809.32546916761,-3039.397691425524,-3440.2546129728617,-19815.53278471294,-3401.9821568539264,-18294.296766582287
-21139.069607383324,-20427.264665302475,-2051.968323557,4453.596315885845,-1719.2489222476356,-18537.98565111662,-4268.821917082134,9664.610812538547,6798.631266543739,6336.789382131476,4528.886393496864,8999.48571857653,9002.120871292915,8724.237743176913,10591.494409661544,9089.394619590355,2929.4741781134358,8626.109675357215,9083.873347232215,8154.542822586861,9612.911625912313,4778.033808657997,9633.490913792659,6382.590846011512,7525.305998952765,10141.008778622276,-8297.092036197058,-16797.46728194387,-3034.880286768863,-3435.2980161968026,-19805.36862423545,-3390.123969630191,-18283.56793052272
-21141.892985293736,-20431.280136108395,-2054.477992810701,4451.337613557514,-1721.0684324565684,-18540.87177075837,-4271.833520186575,9662.9167857923,6797.439173648231,6336.036481355365,4527.129625019274,8998.04265875565,9000.740553203379,8722.794683356033,10590.17683330335,9088.704460545587,2928.972244262695,8625.29403284976,9083.120446456103,8153.287987960011,9611.907758210833,4776.841715762489,9632.236079165808,6381.712461772718,7524.615839907997,10139.62846053274,-8299.664447182102,-16802.737587376643,-3036.699796977796,-3436.7410760176804,-19798.718000713143,-3385.4183397795023,-18280.807294343645
-21148.292641890675,-20438.997369063527,-2059.8737817061574,4446.569241975481,-1725.021161531147,-18546.39304311652,-4277.856726395456,9659.40324883712,6793.9256366930495,6332.773911325555,4523.929796720806,8995.282022576583,8997.101532785513,8719.783080251593,10586.600554616827,9085.818340903834,2926.2116080836245,8622.721621864719,9081.4891614412,8151.342994288394,9609.711797613843,4773.830112658048,9629.287217792713,6379.516501175729,7522.608104505037,10137.11879127904,-8312.65198557,-16824.195259495784,-3043.099453574732,-3442.450573569849,-19800.223802265366,-3393.3865396600017,-18287.45791786595
-21150.237635562287,-20442.699131212732,-2061.5678084524047,4445.377149079975,-1725.3348701878597,-18547.64787774337,-4279.864461798416,9660.093407881886,6793.862894961708,6332.522944400184,4524.745439228258,8996.160406815377,8996.787824128802,8720.410497565017,10586.726038079512,9086.633983411284,2926.8390253970488,8623.537264372173,9083.05770472476,8153.225246228669,9611.029373972038,4774.5830134341595,9629.977376837478,6381.27326965332,7524.553098176654,10139.063784950657,-8322.251470465406,-16849.04098510742,-3046.801215723941,-3446.340560913085,-19809.44683677272,-3407.440687480725,-18295.61434294048
-21151.8689205772,-20445.397025660463,-2063.261835198653,4444.122314453124,-1726.08777096397,-18548.275295056792,-4280.491879111842,9660.595341732627,6794.2393453497625,6332.711169594212,4525.059147884971,8996.348632009405,8996.913307591489,8721.288881803814,10588.106356169046,9087.324142456051,2927.905634829872,8624.72935726768,9083.49689684416,8154.605564318204,9612.033241673518,4775.7751063296655,9631.483178389699,6383.155521593595,7526.937283967671,10141.510712473015,-8328.713868793686,-16869.871239913136,-3051.318620380602,-3448.7247467041007,-19822.434375160617,-3423.0006368536697,-18303.519801089635
-21157.89212678608,-20449.412496466382,-2068.9085910194794,4439.353942871093,-1731.0443677400283,-18551.098672967208,-4281.6839720073485,9656.20342053865,6791.039517051295,6330.076016877825,4519.977067646227,8991.643002158717,8993.650737561677,8718.653729087428,10586.286845960114,9083.308671650133,2924.831289994089,8622.21968801398,9079.293200844211,8151.029285631682,9608.519704718336,4773.202695344623,9629.72640991211,6380.708594071237,7524.678581639339,10139.314751876029,-8336.054651360762,-16877.21202248021,-3060.667138350637,-3451.861833271227,-19833.163211220188,-3436.427367360968,-18312.30364347759
-21160.590021233806,-20447.59298625745,-2071.1672933478103,4438.28733343827,-1732.7383944862763,-18549.592871414985,-4279.174302753649,9654.070201673005,6789.972907618472,6329.887791683798,4517.279173198498,8989.321558099044,8992.70961159154,8718.340020430715,10586.161362497429,9081.112711053143,2923.200004979184,8621.529528969211,9077.661915829307,8149.209775422749,9606.888419703431,4771.759635523746,9629.977376837478,6380.143918489153,7523.3610052811455,10138.248142443204,-8337.623194644324,-16862.593199077404,-3065.8119603207238,-3452.6147340473367,-19837.24142375745,-3437.682201987818,-18316.38185601485
-21155.758907920437,-20438.495435212782,-2065.3950540642986,4443.683122333728,-1727.7817977102177,-18543.067731355364,-4274.656898096988,9658.775831523693,6794.113861887078,6334.028745952405,4522.737703825298,8993.776221024362,8996.97604932283,8722.480974699321,10590.239575034691,9084.939956665037,2927.08999232242,8625.73322496916,9082.24206221731,8153.162504497326,9611.092115703379,4774.081079583419,9634.745748419507,6384.912290071185,7527.0000256990115,10142.263613249124,-8331.47450497276,-16837.057314421,-3060.165204499897,-3448.0345876593337,-19834.669012772407,-3425.0711139879727,-18311.92719308953
-21150.42586075632,-20431.029169183028,-2058.618947079307,4448.075043527703,-1723.327134784899,-18539.742419594208,-4273.5275469328235,9663.481461374382,6796.937239797491,6336.538415206105,4528.886393496864,8997.97991702431,8999.611202039214,8723.924034520198,10592.874727751076,9088.328010157535,2929.85062850149,8628.368377685545,9085.567373978463,8155.797657213712,9613.727268419769,4774.206563046104,9637.25541767321,6387.170992399516,7529.133244564658,10144.459573846112,-8324.635656256421,-16818.1720532869,-3050.252010947779,-3441.509447599712,-19827.70468059339,-3409.1347142269733,-18303.958993209035
-21150.802311144376,-20432.095778615847,-2058.117013228567,4445.314407348632,-1726.2132544266549,-18545.13820848967,-4278.107693320826,9661.160017314709,6792.16886821546,6332.021010549444,4527.882525795384,8994.842830457184,8994.466380069129,8717.587119654607,10588.357323094417,9084.50076454564,2924.4548396060336,8623.035330521432,9081.175452784488,8150.7783187063105,9608.143254330285,4767.242230867084,9631.73414531507,6380.583110608552,7523.235521818461,10138.248142443204,-8322.251470465406,-16808.949018779553,-3044.04057954487,-3440.1291295101764,-19818.41890435469,-3397.5902356599504,-18299.253363358344
-21153.68843078613,-20438.495435212782,-2060.5639407509248,4440.044101915861,-1732.3619440982216,-18554.42398472836,-4285.322992425216,9655.513261493883,6784.45163526033,6324.554744519684,4523.427862870065,8988.380432128904,8986.623663651315,8708.991502460678,10580.389123213916,9077.53643236662,2915.4200302927115,8614.376971596163,9073.395478098015,8142.8101188258115,9599.924087524412,4758.3329050164475,9622.950302927116,6371.109109175832,7514.451679430509,10128.899624473168,-8321.875020077354,-16803.99242200349,-3040.0878504702914,-3442.8270239579047,-19810.074254086136,-3389.5592940481083,-18296.680952373303
-21153.061013472703,-20441.632521779917,-2060.250232094212,4439.102975945723,-1733.9304873817844,-18557.81203822085,-4287.769919947574,9653.819234747634,6781.94196600663,6322.045075265984,4522.235769974557,8986.05898806923,8984.364961322985,8706.481833206979,10577.440261840818,9074.901279650237,2912.0319768002155,8611.365368491724,9069.944682874177,8139.547548796,9597.351676539369,4755.6977523000605,9619.687732897306,6367.84653914602,7510.938142475328,10125.888021368728,-8318.80067524157,-16802.92581257067,-3036.3233465897406,-3442.764282226562,-19806.435233668275,-3386.296724018297,-18293.104673686776
-21150.86505287572,-20440.942362735143,-2059.9365234375,4440.671519229286,-1731.3580763967411,-18554.612209922383,-4284.381866455078,9654.9485859118,6783.69873448422,6324.492002788344,4522.486736899928,8987.125597502054,8986.686405382658,8709.556178042762,10580.01267282586,9076.407081202457,2914.416162591231,8613.74955428274,9070.07016633686,8140.300449572111,9599.422153673671,4758.772097135845,9622.134660419664,6370.042499743009,7512.067493639493,10128.6486575478,-8315.977297331157,-16807.192250301963,-3037.6409229479336,-3440.882030286287,-19806.811684056327,-3394.390407361482,-18292.41451464201
-21151.24150326377,-20441.507038317228,-2063.199093467311,4440.106843647203,-1729.977758307206,-18551.537865086604,-4281.307521619296,9654.572135523744,6784.828085648385,6326.562479922645,4520.228034571597,8987.000114039369,8988.003981740849,8711.877622102433,10582.836050736276,9077.410948903937,2916.6748649195615,8615.7572896857,9069.56823248612,8140.300449572111,9600.426021375151,4761.093541195518,9624.895296598734,6371.54830129523,7512.94587787829,10130.844618144787,-8317.483098883376,-16813.84287382427,-3046.362023604543,-3441.760414525082,-19808.25474387721,-3412.5227677194694,-18297.68482007478
-21152.93553001002,-20442.07171389931,-2066.398921765779,4439.353942871093,-1729.413082725123,-18549.592871414985,-4279.801720067074,9654.19568513569,6785.643728155838,6328.131023206208,4518.534007825348,8987.125597502054,8988.882365979645,8713.195198460628,10585.345719989977,9078.289333142733,2918.306149934467,8617.388574700606,9069.881941142834,8140.614158228823,9601.304405613948,4762.222892359683,9627.53044931512,6372.238460339997,7513.76152038574,10131.973969308952,-8320.494701987818,-16819.426887913753,-3054.832157335783,-3442.8897656892473,-19811.266346981647,-3426.5769155401927,-18303.83350974635
-21152.99827174136,-20438.495435212782,-2066.210696571751,4441.047969617342,-1726.08777096397,-18546.5185265792,-4276.727375231289,9656.642612658048,6788.467106066251,6331.64456016139,4520.29077630294,8989.886233681125,8992.144936009454,8716.332285027753,10589.298449064554,9080.987227590462,2921.6314616956206,8620.902111655787,9072.956285978618,8143.563019601922,9604.755200837786,4764.66981988204,9631.483178389699,6374.371679205642,7516.333931370784,10134.42089683131,-8321.247602763926,-16826.140253167403,-3056.5889258133734,-3441.195738942999,-19817.226811459182,-3429.3375517192635,-18305.653019955284
-21150.42586075632,-20432.28400380988,-2063.387318661338,4444.059572721782,-1721.3193993819386,-18543.067731355364,-4273.025613082083,9660.281633075914,6792.419835140829,6335.346322310596,4523.741571526778,8993.901704487047,8996.285890278063,8720.347755833674,10592.372793900338,9084.187055888928,2925.3959655761714,8624.415648610966,9076.281597739773,8147.327523482472,9608.77067164371,4767.367714329769,9634.369298031455,6376.316672877261,7518.592633699115,10136.67959915964,-8318.549708316199,-16833.794744391187,-3053.2008723208774,-3439.313487002724,-19825.32049480237,-3428.0827170924126,-18305.276569567228
-21148.104416696646,-20429.20965897409,-2060.814907676295,4445.314407348632,-1719.7508560983756,-18542.3775723106,-4272.523679231342,9662.038401553504,6794.2393453497625,6336.099223086708,4525.812048661081,8995.846698158664,8998.23088394968,8721.665332191867,10591.243442736171,9085.316407053093,2926.5880584716792,8624.98032419305,9077.03449851588,8148.833325034693,9609.83728107653,4767.932389911852,9633.74188071803,6376.002964220548,7518.2161833110595,10136.240407040244,-8315.287138286387,-16835.426029406095,-3049.4991101716687,-3440.1291295101764,-19831.657409667965,-3426.6396572715353,-18305.5275364926
-21150.802311144376,-20432.911421123303,-2062.007000571803,4442.616512900904,-1723.578101710269,-18546.204817922488,-4276.476408305921,9659.215023643092,6792.043384752776,6333.087619982266,4522.863187287982,8993.27428717362,8996.160406815377,8719.155662938167,10586.537812885485,9082.681254336707,2924.517581337376,8622.094204551295,9073.960153680098,8146.323655780992,9607.264870091489,4765.67368758352,9630.102860300163,6372.991361116107,7515.455547131989,10133.040578741775,-8316.918423301295,-16831.84975071957,-3050.189269216437,-3444.8347593608646,-19833.22595295153,-3423.3770872417244,-18307.284304970188
-21156.072616577145,-20438.997369063527,-2065.7715044523534,4438.224591706928,-1728.3464732923003,-18550.910447773174,-4279.801720067074,9654.258426867033,6788.906298185649,6329.8250499524565,4516.5262724223885,8988.694140785617,8992.70961159154,8716.144059833727,10583.024275930304,9078.728525262128,2921.9451703523328,8618.76889279014,9069.944682874177,8142.8101188258115,9604.002300061677,4763.038534867135,9626.150131225584,6370.230724937037,7512.94587787829,10129.966233905992,-8320.620185450502,-16827.018637406196,-3054.3929652163847,-3449.414905748869,-19830.27709157843,-3418.169523540296,-18307.91172228361
-21157.45293466668,-20441.56978004857,-2067.026339079204,4436.342339766653,-1729.664049650493,-18551.286898161237,-4278.170435052169,9652.12520800139,6788.5925895289365,6329.950533415141,4513.8911197060015,8987.062855770713,8991.580260427374,8716.081318102384,10582.836050736276,9077.47369063528,2921.5059782329354,8617.890508551345,9069.505490754778,8142.308184975071,9603.249399285569,4763.038534867135,9624.456104479335,6370.105241474352,7513.008619609632,10129.401558323909,-8320.431960256476,-16821.999298898794,-3055.961508499948,-3447.6581372712785,-19825.885170384452,-3410.389548853824,-18303.45705935829
-21155.570682726408,-20441.632521779917,-2065.896987915039,4436.593306692022,-1729.287599262438,-18548.338036788136,-4275.660765798468,9652.689883583469,6789.847424155786,6331.393593236019,4515.271437795537,8988.003981740849,8992.082194278113,8716.834218878494,10583.087017661646,9078.101107948703,2922.007912083676,8618.329700670742,9071.199517501027,8143.688503064606,9603.62584967362,4764.293369493986,9624.07965409128,6371.171850907174,7514.263454236481,10130.279942562704,-8319.239867360966,-16823.442358719672,-3054.643932141756,-3441.760414525082,-19824.88130268297,-3403.613441868832,-18298.06127046284
-21154.692298487607,-20442.07171389931,-2065.081345407586,4436.907015348736,-1729.287599262438,-18545.70288407175,-4275.848990992496,9653.44278435958,6790.223874543842,6331.770043624074,4516.777239347759,8988.694140785617,8992.70961159154,8716.457768490438,10582.898792467618,9078.854008724815,2922.0706538150175,8618.894376252825,9072.705319053248,8144.629629034744,9603.563107942278,4764.9835285387535,9624.330621016652,6372.112976877313,7515.141838475279,10131.1583268015,-8319.867284674392,-16833.04184361508,-3053.7655479029604,-3438.0586523758734,-19830.590800235143,-3403.111508018092,-18298.563204313577
-21155.947133114456,-20443.57751545153,-2066.210696571751,4436.781531886049,-1730.0405000385483,-18545.577400609065,-4277.668501201429,9653.693751284947,6789.157265111019,6331.3308515046765,4517.467398392526,8988.443173860247,8993.148803710934,8715.453900788958,10582.522342079563,9079.48142603824,2921.694203426963,8619.396310103566,9074.211120605467,8145.068821154143,9603.500366210936,4765.422720658151,9625.271746986788,6372.991361116107,7515.581030594673,10131.597518920897,-8320.996635838557,-16843.896163137335,-3054.7694156044404,-3439.7526791221208,-19841.507861488742,-3410.075840197111,-18304.52366879112
-21158.519544099505,-20445.647992585833,-2070.288909109015,4435.9031476472555,-1731.6717850534535,-18548.52626198216,-4279.488011410362,9653.19181743421,6786.898562782689,6329.887791683798,4517.592881855211,8987.50204789011,8992.52138639751,8714.324549624793,10581.392990915396,9079.293200844211,2921.2550113075654,8619.27082664088,9074.650312724863,8144.8178542287715,9603.563107942278,4765.359978926809,9625.52271391216,6373.681520160875,7515.831997520045,10131.534777189554,-8324.635656256421,-16850.0448528089,-3058.4084360223064,-3445.273951480263,-19852.111214085628,-3420.428225868626,-18310.9860671194
-21157.327451204,-20443.201065063473,-2072.233902780633,4438.161849975585,-1729.915016575863,-18549.21642102693,-4277.982209858141,9655.387778031196,6788.341622603566,6331.079884579306,4520.039809377568,8989.76075021844,8994.152671412417,8716.834218878494,10583.275242855672,9081.551903172542,2924.4548396060336,8621.529528969211,9076.846273321853,8147.26478175113,9606.888419703431,4767.430456061112,9627.844157971833,6376.881348459344,7519.345534475226,10134.797347219366,-8327.333550704152,-16850.923237047697,-3059.475045455129,-3448.3482963160454,-19856.565877010944,-3425.259339182,-18312.052676552215
-21150.237635562287,-20434.60544786955,-2067.528272929944,4444.624248303865,-1723.5153599789267,-18544.38530771356,-4273.903997320876,9661.536467702765,6795.054987857216,6336.036481355365,4525.749306929739,8996.285890278063,8999.422976845188,8723.296617206774,10589.235707333211,9087.700592844109,2931.6073969790805,8627.427251715406,9082.869479530735,8153.915405273437,9613.915493613793,4772.888986687911,9633.930105912055,6383.343746787623,7526.623575310957,10141.573454204356,-8324.133722405682,-16850.170336271585,-3054.2674817537004,-3446.654269569798,-19857.3815195184,-3424.380954943205,-18308.790106522407
-21146.78684033845,-20429.58610936215,-2063.450060392681,4447.071175826223,-1721.131174187911,-18542.00112192254,-4274.343189440275,9664.046136956464,6797.878365767629,6337.605024638929,4527.506075407328,8999.360235113845,9000.928778397409,8725.618061266447,10591.870860049596,9090.335745560495,2934.1170662327813,8629.685954043738,9085.818340903834,8157.177975303248,9616.362421136153,4775.210430747584,9636.941709016495,6386.480833354749,7530.137112266138,10144.522315577457,-8321.624053151982,-16847.40970009251,-3050.565719604492,-3444.8347593608646,-19860.204897428808,-3424.631921868575,-18306.217695537365
-21151.304244995117,-20432.095778615847,-2064.830378482216,4442.992963288959,-1725.4603536505447,-18545.640142340402,-4278.860594096936,9660.658083463968,6793.862894961708,6334.216971146432,4524.431730571546,8996.662340666118,8997.101532785513,8722.480974699321,10589.737641183952,9087.700592844109,2930.289820620888,8626.674350939298,9084.312539351615,8155.358465094314,9612.974367643656,4772.888986687911,9634.871231882194,6385.476965653268,7528.568568982574,10142.64006363718,-8324.321947599712,-16839.127791555304,-3052.447971544768,-3442.638798763877,-19863.71843438399,-3425.0711139879727,-18302.704158582183
-21157.578418129367,-20435.8602824964,-2067.340047735917,4439.2284594084085,-1730.1032417698907,-18549.592871414985,-4281.244779887952,9657.081804777443,6789.345490305047,6330.766175922594,4522.988670750668,8993.776221024362,8993.399770636306,8719.092921206824,10587.227971930251,9085.002698396382,2926.337091546309,8623.411780909486,9082.681254336707,8153.287987960011,9609.900022807871,4770.63028435958,9631.73414531507,6383.971164101048,7526.309866654243,10140.004910920792,-8326.078716077302,-16824.13251776444,-3054.204740022358,-3439.815420853464,-19862.4008580258,-3419.800808555201,-18298.18675392552
-21160.90372989052,-20438.68366040681,-2068.4066571687395,4438.099108244243,-1732.9893614116463,-18552.228024131367,-4281.495746813322,9654.760360717773,6786.7730793200035,6328.005539743524,4522.80044555664,8991.643002158717,8990.952843113948,8716.583251953123,10584.216368825812,9082.932221262077,2924.015647486636,8620.525661267731,9080.171585083006,8151.092027363023,9608.331479524308,4768.87351588199,9628.157866628544,6381.52423657869,7523.862939131886,10136.930566085011,-8324.133722405682,-16807.505958958674,-3052.6989384701374,-3442.011381450452,-19854.244432951273,-3407.5661709434103,-18295.990793328532
-21160.778246427835,-20440.75413754112,-2068.5321406314247,4438.475558632297,-1734.118712575812,-18553.482858758223,-4280.805587768555,9653.19181743421,6785.831953349865,6326.68796338533,4520.918193616365,8989.572525024412,8989.572525024412,8715.077450400904,10581.643957840768,9081.426419709856,2922.886296322471,8618.831634521484,9076.4698229338,8148.394132915296,9607.5785787482,4767.367714329769,9625.146263524104,6378.951825593646,7521.478753340871,10134.42089683131,-8323.067112972862,-16800.980818899054,-3050.063785753752,-3447.971845927991,-19844.519464593184,-3394.578632555509,-18296.05353505988
-21156.574550427886,-20439.436561182923,-2067.1518225418886,4441.173453080026,-1731.1071094713711,-18550.722222579152,-4277.103825619346,9654.760360717773,6787.839688752825,6329.448599564401,4520.1652928402555,8990.199942337838,8991.203810039318,8716.645993684466,10583.024275930304,9082.618512605362,2924.141130949321,8620.839369924444,9075.654180426343,8147.829457333213,9609.084380300419,4768.057873374537,9625.71093910619,6378.951825593646,7520.914077758787,10134.546380293996,-8321.31034449527,-16807.192250301963,-3047.3658913060235,-3449.0384553608137,-19839.68835127981,-3390.123969630191,-18297.998528731492
-21149.79844344289,-20434.040772287462,-2065.081345407586,4445.941824662057,-1724.4564859490645,-18544.51079117624,-4271.331586335834,9659.528732299801,6792.859027260228,6335.220838847913,4522.925929019325,8994.340896606443,8996.097665084035,8721.72807392321,10587.792647512333,9086.383016485917,2928.1566017552423,8625.984191894531,9078.603041799443,8150.903802168995,9612.78614244963,4771.571410329718,9629.663668180767,6381.586978310032,7522.608104505037,10137.056049547697,-8314.53423751028,-16815.411417107833,-3044.6679968582953,-3443.642666465357,-19839.751093011153,-3397.4020104659226,-18301.01013183593
-21145.594747442945,-20429.523367630805,-2064.7676367508734,4449.518103348581,-1719.6253726356906,-18540.558062101663,-4267.818049380653,9663.732428299752,6797.815624036286,6339.926468698602,4525.812048661081,8998.607334337734,9001.17974532278,8726.747412430612,10591.745376586912,9089.771069978413,2932.1720725611635,8630.501596551192,9082.179320485968,8155.107498168944,9616.23693767347,4774.896722090872,9633.302688598633,6384.222131026418,7524.866806833366,10139.377493607368,-8308.57377303274,-16820.61898080926,-3044.1660630075553,-3439.8781625848064,-19841.570603220083,-3410.0130984657685,-18306.15495380602
-21145.908456099656,-20429.648851093487,-2066.8381138851764,4449.267136423211,-1719.562630904348,-18541.875638459856,-4267.943532843337,9664.42258734452,6799.572392513876,6341.1185615941085,4525.310114810341,8999.7366855019,9003.50118938245,8728.064988788803,10591.93360178094,9090.461229023182,2933.426907188013,8631.505464252672,9083.49689684416,8157.052491840562,9617.366288837633,4775.084947284899,9633.804622449372,6384.347614489103,7525.368740684107,10139.440235338712,-8310.267799778987,-16829.967498779297,-3048.1187920821335,-3443.20347434596,-19846.15074960809,-3422.3104778089014,-18315.315246582028
-21146.912323801134,-20431.21739437705,-2069.347783138877,4446.75746716951,-1721.131174187911,-18544.69901637027,-4269.198367470189,9662.854044060958,6799.635134245218,6340.302919086656,4523.616088064093,8999.172009919817,9004.191348427219,8727.563054938064,10590.17683330335,9090.084778635122,2933.677874113384,8631.066272133274,9083.371413381476,8157.428942228617,9617.742739225687,4774.394788240131,9633.114463404607,6383.28100505628,7525.055032027393,10138.875559756629,-8315.412621749076,-16844.900030838813,-3053.8282896343026,-3449.3521640175263,-19853.67975736919,-3434.1686650326374,-18323.408929925212
-21146.4103899504,-20429.9625597502,-2069.347783138877,4445.565374274001,-1721.0684324565684,-18544.573532907583,-4269.135625738846,9662.289368478874,6800.8899688720685,6340.302919086656,4523.867054989463,8999.799427233243,9005.320699591384,8728.69240610223,10589.92586637798,9091.025904605262,2935.6228677850017,8632.070139834754,9084.187055888928,8158.872002049495,9619.248540777908,4775.712364598324,9633.867364180715,6383.78293890702,7526.372608385587,10140.004910920792,-8317.985032734117,-16851.55065436112,-3057.341826589484,-3452.1128001965967,-19857.757969906448,-3442.011381450452,-18324.72650628341
-21146.033939562345,-20427.8920826159,-2066.5871469598064,4446.0045663934,-1720.5664986058284,-18542.69128096731,-4268.069016306024,9662.9167857923,6802.333028692948,6341.1185615941085,4525.247373078998,9000.991520128751,9006.45005075555,8730.072724191763,10590.365058497378,9092.468964426142,2937.128669337222,8632.94852407355,9085.441890515778,8160.001353213661,9620.377891942073,4777.155424419201,9634.432039762796,6384.598581414472,7528.003893400492,10141.1970038163,-8318.1105161968,-16837.37102307771,-3057.5927935148534,-3449.916839599609,-19852.362181011,-3438.9370366146686,-18320.460068552115
-21147.351515920534,-20429.08417551141,-2063.575543855365,4445.941824662057,-1721.6331080386512,-18543.130473086705,-4268.131758037366,9662.477593672902,6801.454644454152,6340.051952161286,4525.498340004368,9000.48958627801,9005.885375173468,8728.504180908201,10589.047482139184,9091.841547112717,2935.6856095163444,8631.003530401931,9084.814473202352,8158.621035124125,9618.432898270456,4775.900589792352,9632.738013016547,6383.53197198165,7527.313734355725,10139.879427458109,-8318.1105161968,-16810.6430455258,-3054.079256559673,-3446.277819181743,-19838.18254972759,-3424.694663599917,-18314.185895417864
-21145.40652224892,-20428.83320858604,-2058.117013228567,4447.886818333675,-1720.2527899491158,-18543.883373862816,-4265.49660532098,9663.544203105725,6801.831094842208,6340.051952161286,4527.255108481959,9001.242487054122,9006.199083830179,8727.751280132092,10589.298449064554,9091.841547112717,2935.4346425909744,8629.811437506421,9085.002698396382,8157.993617810701,9616.864354986892,4775.461397672953,9632.54978782252,6383.406488518965,7527.627443012437,10139.565718801396,-8314.283270584909,-16787.554088391753,-3045.483639365748,-3440.819288554944,-19822.05792477256,-3404.052633988229,-18305.46479476125
-21137.438322368416,-20422.559035451788,-2048.5802700645045,4454.3492166619535,-1713.9158750835215,-18540.74628729569,-4258.344047947933,9669.065475463864,6806.599466424239,6344.506615086605,4532.964606034128,9005.94811690481,9010.277296367443,8731.704009206673,10594.44327103464,9096.045243112663,2939.5755968595804,8633.638683118317,9089.520103053042,8161.632638228566,9620.06418328536,4779.4141267475325,9637.129934210525,6387.986634906969,7531.89388074373,10144.208606920743,-8304.934752614874,-16778.895729466487,-3034.81754503752,-3432.3491548237043,-19814.905367399515,-3385.9202736302423,-18294.42225004497
-21132.795434249078,-20419.35920715332,-2042.49432212428,4458.552912661903,-1709.963146008943,-18538.86403535541,-4255.332444843492,9673.206429732472,6809.924778185392,6347.329992997018,4537.231043765419,9009.022461740593,9012.786965621144,8734.652870579768,10598.458741840563,9099.4960383365,2942.3989747699934,8637.340445267526,9093.47283212762,8164.769724795693,9623.138528121144,4782.362988120632,9640.957179822417,6392.441297832288,7535.407417698909,10148.726011577404,-8303.303467599968,-16789.687307257398,-3031.5549750077093,-3428.9611013312087,-19820.363898026317,-3382.343994943719,-18289.65387846294
-21136.93638851768,-20425.69612201891,-2045.1294748406656,4455.541309557462,-1713.476682964124,-18543.632406937442,-4260.289041619552,9670.759502210114,6806.787691618266,6343.9419395045215,4534.156698929635,9005.822633442125,9009.273428665965,8731.453042281299,10596.262781243575,9096.9863690828,2939.3246299342104,8634.642550819797,9091.71606365003,8162.448280736019,9620.691600598786,4779.60235194156,9638.823960956772,6390.99823801141,7533.211457101923,10147.408435219211,-8314.659720972963,-16813.215456510843,-3038.895757574784,-3435.2980161968026,-19828.52032310084,-3395.645241988332,-18295.802568134503
-21140.889117592254,-20432.974162854644,-2049.270429109272,4452.090514333624,-1717.9940876207852,-18548.83997063888,-4267.818049380653,9667.43419044896,6802.207545230262,6339.299051385176,4529.513810810289,9002.309096486944,9005.257957860042,8727.123862818667,10592.310052168996,9093.347348664935,2935.2464173969465,8630.062404431794,9089.080910933644,8159.060227243522,9617.930964419713,4776.026073255037,9635.435907464276,6388.049376638312,7529.6351784153985,10144.710540771483,-8322.376953928095,-16834.045711316558,-3046.989440917968,-3442.9525074205894,-19831.845634861995,-3413.3384102269215,-18303.08060897024
-21137.68928929379,-20433.22512978001,-2047.325435437654,4454.47470012464,-1717.1784451133324,-18547.836102937395,-4271.143361141807,9669.94385970266,6802.772220812345,6339.236309653834,4531.396062750565,9004.881507471988,9006.638275949577,8727.249346281353,10592.247310437651,9095.041375411183,2936.375768561112,8630.313371357164,9091.9670305754,8161.005220915139,9620.25240847939,4777.406391344572,9637.129934210525,6390.433562429327,7531.580172087014,10147.220210025183,-8317.734065808745,-16837.496506540396,-3046.4875070672283,-3443.140732614617,-19833.22595295153,-3420.5537093313114,-18303.206092432923
-21131.91705001028,-20429.58610936215,-2042.3688386615952,4459.368555169356,-1714.229583740234,-18543.381440012075,-4268.821917082134,9674.774973016036,6806.223016036183,6341.495011982164,4536.478142989309,9009.90084597939,9009.96358771073,8729.570790341026,10594.380529303298,9098.994104485762,2940.140272441663,8632.94852407355,9096.358951769376,8165.271658646432,9623.452236777855,4780.794444837068,9641.396371941815,6394.825483623304,7536.348543669046,10151.863098144528,-8309.32667380885,-16823.567842182358,-3039.648658350894,-3438.4978444952712,-19835.610138742544,-3416.53823852539,-18300.696423179223
-21131.728824816248,-20429.58610936215,-2042.8707725123356,4458.8038795872735,-1716.8019947252772,-18544.0088573255,-4268.194499768709,9673.018204538444,6803.964313707853,6338.232441952353,4535.0978248997735,9008.332302695826,9006.324567292864,8726.559187236584,10591.306184467516,9095.98250138132,2937.2541527999074,8629.184020192999,9092.71993135151,8162.573764198704,9619.185799046563,4778.159292120682,9639.074927882144,6391.24920493678,7533.776132684004,10149.039720234116,-8307.256196674547,-16807.6941841527,-3036.2606048583975,-3438.874294883326,-19836.112072593285,-3411.644383480674,-18302.64141685084
-21138.75589872661,-20435.483832108344,-2050.838972392835,4450.333745856034,-1726.3387378893399,-18552.16528240003,-4274.7196398283295,9663.293236180354,6794.17660361842,6327.754572818153,4526.063015586451,8998.356367412365,8995.031055651212,8716.332285027753,10581.330249184053,9085.25366532175,2925.897899426912,8618.01599201403,9081.0499693218,8151.342994288394,9607.32761182283,4767.869648180509,9628.095124897203,6378.889083862304,7522.294395848323,10137.18153301038,-8312.65198557,-16798.84760003341,-3040.0878504702914,-3444.8347593608646,-19830.77902542917,-3409.3856811523433,-18307.84898055227
-21146.8495820698,-20442.134455630647,-2059.6228147807874,4440.483294035258,-1735.4362889340048,-18560.823641325296,-4282.813323171515,9652.815367046154,6784.6398604543565,6317.96686272872,4517.404656661184,8987.815756546823,8984.866895173724,8705.979899356238,10572.107214676704,9075.277730038291,2914.5416460539163,8607.53812287983,9069.756457680147,8139.861257452713,9596.410550569231,4757.266295583624,9616.80161325555,6366.7799297132,7510.687175549959,10125.072378861276,-8317.294873689347,-16796.463414242393,-3046.173798410516,-3448.787488435444,-19819.23454686215,-3405.80940246582,-18309.668490761203
-21151.994404039884,-20446.02444297389,-2065.1440871389286,4434.773796483089,-1739.5772432026108,-18564.588145205846,-4286.326860126696,9646.603935643245,6779.934230603669,6314.70429269891,4512.6990268104955,8982.169000725997,8980.600457442433,8701.337011236892,10569.534803691662,9070.195649799549,2908.8321485017473,8603.334426879881,9062.917608963817,8133.210633930406,9590.889278211089,4751.68228149414,9611.531307822781,6360.1920479222335,7504.036552027651,10118.923689189707,-8318.926158704255,-16800.039692928916,-3051.1303951865743,-3449.6031309428963,-19802.231537668325,-3400.727322227076,-18305.653019955284
-21154.190364636874,-20447.279277600737,-2068.030206780684,4433.707187050267,-1739.0753093518706,-18562.831376728256,-4284.5073499177615,9645.349101016394,6780.185197529039,6317.590412340664,4510.189357556795,8981.165133024515,8981.03964956183,8703.031037983139,10572.358181602076,9069.00355690404,2909.14585715846,8605.2794205515,9059.843264128032,8131.391123721473,9590.261860897666,4751.556798031456,9612.346950330231,6358.247054250616,7501.903333162005,10117.982563219572,-8320.871152375872,-16812.14884707802,-3054.0165148283304,-3450.230548256321,-19786.42062137001,-3401.0410308837886,-18300.13174759714
-21153.500205592103,-20445.836217779855,-2069.0340744821647,4436.02863110994,-1734.620646426552,-18556.87091225072,-4279.550753141704,9647.98425373278,6784.890827379728,6323.864585474917,4509.499198512027,8983.23561015882,8984.866895173724,8708.866018997993,10577.063811452765,9071.011292307,2914.1024539345185,8610.926176372326,9059.843264128032,8133.147892199062,9593.398947464791,4755.321301912006,9616.23693767347,6359.627372340152,7503.471876445568,10119.927556891187,-8321.31034449527,-16832.288942838968,-3055.710541574578,-3450.3560317190068,-19780.899349011874,-3411.330674823961,-18297.810303537462
-21149.923926905576,-20441.005104466487,-2068.2811737060542,4440.922486154656,-1727.9072811729027,-18548.46352025082,-4272.9001296193965,9653.50552609092,6792.294351678145,6331.770043624074,4511.695159109016,8987.75301481548,8991.454776964689,8716.834218878494,10582.773309004931,9076.281597739773,2921.5687199642775,8618.2669589394,9063.29405935187,8138.041747243779,9599.484895405016,4761.90918370297,9621.946435225635,6364.458485653525,7508.553956684312,10124.319478085166,-8318.1105161968,-16847.974375674596,-3057.341826589484,-3448.7247467041007,-19786.16965444464,-3422.059510883532,-18298.18675392552
-21145.908456099656,-20434.730931332237,-2067.1518225418886,4445.690857736688,-1722.5742340087888,-18540.30709517629,-4266.563214753803,9658.901314986377,6798.192074424342,6338.734375803094,4515.145954332853,8992.333161203484,8998.23088394968,8723.73580932617,10588.231839631731,9082.05383702328,2927.278217516447,8624.72935726768,9068.376139590611,8143.374794407894,9605.508101613896,4768.246098568565,9627.906899703175,6370.29346666838,7514.263454236481,10129.527041786594,-8314.847946166992,-16848.28808433131,-3059.2868202611016,-3445.650401868318,-19797.023973966898,-3424.569180137232,-18299.880780671767
