Fp1,Fp2,F7,F3,Fz,F4,F8,FC3,FCz,FC4,T7,C3,Cz,C4,T8,CP3,CPz,CP4,P7,P3,Pz,P4,P8,O1,Oz,O2,VPVA,VNVB,HPHL,HNHR,Erbs,OrbOcc,Mass
-22638.534244738126,-21053.92907795153,-2308.393779553865,4031.846397801449,-1919.5832704242905,-18859.59976597836,-4871.769955283717,9328.691582930715,6416.973314787211,6135.20019932797,4640.754900480571,8853.234742817125,8629.936920969107,8465.42810138903,10334.62976154528,8738.731083117033,2836.1772236071133,8286.990617450914,8801.535556190891,7772.257453516909,9353.223599885636,4928.927672536749,9455.931814093336,6100.253054970189,7151.365280151366,9741.343949970445,-9476.636585436368,-17540.14115584524,-4054.370679353413,-3511.3409945839326,-19215.533607884452,-3233.144157811215,-17968.667180914625
-22640.47923840974,-21052.925210250047,-2301.115738718133,4033.226715890984,-1918.4539192601253,-18857.529288844056,-4868.883835641961,9329.569967169507,6417.726215563322,6136.7687426115335,4642.323443764134,8854.11312705592,8631.317239058642,8465.867293508429,10336.261046560187,8740.111401206568,2836.4909322638255,8288.245452077763,8802.037490041632,7772.508420442278,9354.729401437857,4930.370732357627,9456.810198332132,6101.570631328382,7153.247532091642,9742.975234985348,-9474.001432719982,-17548.799514770504,-4052.7393943385064,-3507.9529410914365,-19216.97666770533,-3227.0582098709906,-17962.393007780374
-22640.8556887978,-21050.854733115742,-2295.9709167480464,4036.8657363088505,-1916.6971507825344,-18855.396069978407,-4864.680139642012,9331.07576872173,6419.043791921515,6139.2784118652335,4643.578278390984,8854.928769563372,8633.011265804895,8467.624061986018,10338.707974082545,8740.550593325965,2837.5575416966485,8290.315929212067,8801.598297922234,7772.571162173623,9355.79601087068,4931.18637486508,9458.50422507838,6102.386273835834,7154.063174599095,9744.606520000256,-9473.624982331927,-17562.288987009146,-4052.4256856817938,-3505.694238763106,-19220.678429854543,-3228.7522366172384,-17961.577365272922
-22639.287145514238,-21048.909739444127,-2292.959313643606,4039.500889025236,-1915.2540909616569,-18854.01575188888,-4861.354827880858,9331.765927766495,6420.298626548365,6140.97243861148,4643.327311465614,8855.054253026057,8633.45045792429,8469.757280851665,10340.59022602282,8739.734950818513,2838.4986676667863,8291.696247301603,8800.28072156404,7772.571162173623,9356.109719527394,4931.311858327765,9459.319867585833,6102.198048641807,7153.623982479697,9744.982970388312,-9475.695459466231,-17573.958949038853,-4052.927619532535,-3507.827457628752,-19224.50567546644,-3234.8381845574622,-17966.22025339227
-22637.78134396201,-21046.96474577251,-2291.0770617033304,4041.069432308799,-1914.187481528834,-18852.88640072471,-4860.978377492804,9331.765927766495,6421.114269055817,6142.101789775647,4642.448927226819,8854.928769563372,8633.387716192945,8471.263082403884,10341.405868530272,8738.982050042403,2838.561409398129,8292.63737327174,8798.71217828048,7772.194711785566,9355.984236064709,4931.123633133737,9459.25712585449,6101.131439208984,7152.118180927477,9744.292811343543,-9477.514969675165,-17581.738923725326,-4052.6766526071647,-3510.3998686137948,-19227.580020302215,-3239.857523064864,-17971.49055882504
-22638.659728200808,-21044.329593056125,-2291.4535120913856,4043.07716771176,-1912.6816799766136,-18851.757049560543,-4862.609662507709,9332.142378154553,6421.867169831928,6143.356624402497,4641.570542988024,8855.305219951428,8633.95239177503,8472.078724911338,10341.154901604901,8739.107533505088,2837.9967338160463,8293.703982704563,8797.833794041682,7771.943744860195,9355.670527407998,4930.93540793971,9459.382609317176,6100.127571507504,7150.675121106598,9743.539910567431,-9477.95416179456,-17587.07197088944,-4051.9237518310542,-3511.02728592722,-19230.779848600687,-3242.492675781249,-17973.623777690686
-22642.612457275383,-21042.321857653165,-2294.8415655838808,4044.8966779206926,-1911.238620155736,-18850.941407053087,-4864.11546405993,9332.769795467977,6422.808295802066,6144.485975566663,4640.503933555201,8855.744412070826,8634.642550819797,8472.70614222476,10339.774583515367,8739.483983893142,2837.620283427991,8294.456883480674,8797.896535773025,7772.382936979595,9355.105851825914,4930.872666208367,9459.821801436572,6100.127571507504,7149.9849620618315,9743.477168836089,-9478.205128719934,-17589.5188984118,-4052.6139108758225,-3510.9645441958774,-19236.175637496144,-3247.7002394826786,-17973.937486347397
-22646.94163673802,-21042.447341115847,-2298.229619076377,4044.7084527266647,-1911.6150705437908,-18850.439473202357,-4865.056590030067,9332.01689469187,6422.306361951325,6144.548717298005,4638.684423346268,8854.426835712633,8634.266100431742,8472.70614222476,10337.704106381065,8738.605599654347,2836.741899189196,8293.829466167248,8797.01815153423,7771.881003128854,9353.78827546772,4930.057023700913,9459.445351048518,6100.002088044817,7149.043836091692,9742.787009791326,-9479.773672003492,-17585.126977217824,-4056.441156487715,-3510.713577270508,-19240.56755869012,-3257.801658228824,-17974.878612317534
-22647.63179578279,-21044.329593056125,-2298.9825198524873,4043.1399094431026,-1913.1208720960112,-18849.24738030685,-4865.307556955438,9330.197384482935,6420.863302130448,6144.611459029347,4636.300237555252,8851.666199533562,8633.826908312345,8472.70614222476,10337.13943079898,8736.409639057358,2835.675289756373,8293.013823659796,8795.01041613127,7769.496817337838,9352.53344084087,4928.927672536749,9458.880675466435,6098.747253417968,7147.538034539472,9741.21846650776,-9481.718665675113,-17572.51588921798,-4060.9585611443767,-3509.1450339869443,-19240.379333496086,-3262.5072880795124,-17973.74926115337
-22644.36922575298,-21046.96474577251,-2297.7904269569794,4042.010558278937,-1913.9992563348064,-18847.67883702328,-4864.9938482987245,9328.879808124742,6420.486851742392,6145.489843268143,4634.041535226922,8849.84668932463,8634.391583894425,8473.270817806846,10338.331523694487,8734.46464538574,2835.487064562345,8293.453015779192,8793.128164190994,7766.9871480841375,9351.843281796106,4928.802189074064,9459.25712585449,6097.115968403064,7146.596908569335,9740.089115343597,-9482.220599525854,-17558.461741397252,-4062.715329621967,-3507.0745568526413,-19239.689174451323,-3254.72731339304,-17968.792664377306
-22639.60085417095,-21049.03522290681,-2295.2180159719364,4042.2615252043065,-1913.2463555586965,-18846.6749693218,-4864.4919144479845,9328.8170663934,6422.0553950259555,6146.995644820362,4632.723958868729,8849.84668932463,8635.583676789935,8474.525652433696,10339.711841784025,8734.213678460372,2836.553673995168,8294.833333868728,8791.685104370115,7765.732313457286,9351.78054006476,4929.868798506886,9460.072768361944,6096.174842432924,7146.345941643965,9739.71266495554,-9480.024638928864,-17549.238706889904,-4060.9585611443767,-3506.5098812705587,-19238.748048481182,-3240.6104238409744,-17962.393007780374
-22635.64812509637,-21049.97634887695,-2293.084797106291,4042.7634590550474,-1911.4268453497637,-18846.04755200837,-4863.299821552477,9329.507225438167,6424.439580816971,6148.940638491981,4632.786700600072,8850.787815294769,8636.775769685442,8476.407904373971,10341.531351992957,8735.593996549907,2838.122217278731,8296.527360614977,8790.80672013132,7765.795055188629,9352.156990452817,4931.43734179045,9460.700185675369,6096.30032589561,7146.596908569335,9740.026373612252,-9476.19739331697,-17549.301448621245,-4058.323408427991,-3507.513748972039,-19235.234511526007,-3231.4501310649666,-17958.75398736251
-22634.581515663547,-21050.98021657843,-2293.586730957031,4042.1360417416217,-1910.1720107229128,-18846.298518933745,-4862.044986925625,9329.758192363535,6425.945382369191,6149.88176446212,4633.539601376182,8851.227007414165,8637.340445267526,8477.913705926192,10343.037153545176,8737.037056370784,2839.063343248869,8297.782195241827,8790.618494937293,7766.359730770712,9352.847149497584,4932.629434685958,9461.076636063424,6097.115968403064,7147.287067614103,9740.653790925677,-9473.624982331927,-17559.214642173363,-4058.1979249653054,-3508.956808792917,-19232.91306746633,-3234.02254205001,-17961.138173153526
-22636.338284141137,-21052.486018130647,-2295.155274240594,4040.692981920744,-1910.1720107229128,-18848.36899606805,-4862.044986925625,9329.005291587428,6425.317965055766,6148.8778967606395,4633.790568301552,8850.787815294769,8636.775769685442,8478.164672851562,10342.221511037724,8736.974314639441,2838.6868928608137,8297.405744853771,8790.618494937293,7766.29698903937,9353.223599885636,4932.6921764173,9460.700185675369,6097.4924187911165,7147.600776270815,9740.842016119705,-9473.499498869245,-17572.64137268066,-4060.5821107563215,-3509.9606764943974,-19233.415001317073,-3244.688636378238,-17967.34960455643
-22638.47150300678,-21053.427144100788,-2295.5317246286486,4040.128306338661,-1910.548461110968,-18851.506082635176,-4863.488046746505,9327.938682154607,6423.749421772203,6147.121128283048,4633.539601376182,8850.16039798134,8635.834643715305,8477.59999726948,10340.339259097447,8736.033188669302,2837.432058233964,8296.213651958262,8790.932203594006,7765.857796919971,9353.098116422954,4932.127500835218,9460.072768361944,6097.868869179173,7147.161584151418,9740.653790925677,-9471.993697317022,-17583.495692202916,-4062.652587890625,-3509.8979347630548,-19232.97580919768,-3254.099896079615,-17971.55330055638
-22640.040046290345,-21052.548759861995,-2295.2180159719364,4041.4458826968535,-1911.1758784243927,-18854.266718814244,-4866.750616776314,9327.624973497892,6422.682812339381,6145.364359805458,4633.727826570209,8850.223139712683,8634.893517745166,8476.972579956055,10339.272649664626,8735.468513087222,2836.4281905324838,8295.147042525441,8791.998813026828,7766.234247308029,9352.78440776624,4932.44120949193,9460.0100266306,6098.245319567228,7146.596908569335,9740.904757851047,-9468.731127287212,-17589.58164014314,-4063.4682303980767,-3508.454874942177,-19231.971941496195,-3258.6173007362763,-17971.867009213096
-22641.357622648535,-21050.541024459035,-2296.221883673417,4043.390876368472,-1912.4934547825865,-18855.96074556049,-4871.518988358345,9328.126907348633,6422.431845414009,6144.297750372635,4635.359111585114,8851.289749145508,8634.140616969058,8476.658871299342,10339.649100052682,8735.280287893194,2836.553673995168,8294.833333868728,8793.379131116364,7767.489081934877,9353.098116422954,4933.884269312808,9460.700185675369,6098.433544761256,7146.596908569335,9741.657658627159,-9469.797736720033,-17588.01309685958,-4063.217263472707,-3507.011815121299,-19232.41113361559,-3260.6250361392367,-17970.361207660873
-22643.365358051495,-21050.352799265005,-2298.731552927117,4043.516359831157,-1915.0658657676288,-18857.34106365003,-4875.910909552323,9328.189649079972,6421.6789446379,6143.984041715921,4637.304105256732,8851.91716645893,8633.262232730262,8475.717745329202,10340.276517366106,8734.71561231111,2836.741899189196,8294.582366943358,8793.818323235762,7767.9910157856175,9353.160858154297,4934.323461432205,9461.20211952611,6098.182577835885,7146.785133763362,9741.971367283868,-9476.887552361739,-17579.166512740285,-4062.9662965473367,-3506.6981064645865,-19230.779848600687,-3261.5661621093745,-17967.224121093746
-22646.816153275337,-21052.172309473935,-2300.990255255448,4041.6341078908818,-1918.5794027228103,-18858.97234866493,-4879.173479582134,9327.624973497892,6420.047659622995,6143.482107865182,4637.9315225701575,8851.603457802219,8632.321106760124,8474.14920204564,10339.774583515367,8734.088194997687,2836.1772236071133,8293.641240973218,8793.692839773077,7767.426340203536,9352.094248721472,4933.256851999383,9460.825669138052,6098.0570943732,7147.161584151418,9741.657658627159,-9483.475434152702,-17570.131703426963,-4063.2800052040498,-3506.6981064645865,-19224.756642391803,-3260.4368109452093,-17961.514623541578
-22650.58065715589,-21053.427144100788,-2302.4960568076685,4038.7479882491257,-1921.841972752621,-18861.04282579924,-4882.373307880602,9326.683847527753,6418.290891145404,6141.788081118934,4636.6139462119645,8851.10152395148,8631.44272252133,8472.266950105362,10338.331523694487,8733.774486340973,2835.298839368318,8292.135439421001,8793.818323235762,7766.9871480841375,9350.400221975224,4931.813792178505,9459.508092779859,6098.1198361045435,7148.039968390212,9741.155724776416,-9485.106719167608,-17565.11236491956,-4063.53097212942,-3506.3843978078735,-19217.6668267501,-3256.0448897512333,-17954.80125828793
-22652.71387602153,-21053.552627563473,-2304.5665339419716,4035.673643413343,-1924.2261585436368,-18863.866203709647,-4884.632010208932,9325.8682050203,6416.471380936471,6138.901961477179,4634.919919465717,8850.536848369395,8630.313371357164,8469.945506045691,10336.700238679581,8733.649002878288,2834.4831968608646,8290.253187480723,8794.132031892474,7766.485214233397,9349.208129079716,4930.1825071636,9457.563099108243,6097.868869179173,7148.541902240952,9740.21459880628,-9482.283341257194,-17563.60656336734,-4062.9035548159945,-3506.0706891511613,-19212.52200478001,-3247.9512064080486,-17950.0328867059
-22651.208074469312,-21053.23891890676,-2307.6408787777546,4034.5442922491766,-1925.104542782432,-18865.873939112607,-4883.188950388055,9326.621105796414,6415.718480160361,6136.643259148848,4635.170886391087,8850.474106638054,8629.497728849712,8467.561320254676,10335.508145784075,8734.339161923057,2834.1067464728103,8289.123836316558,8794.633965743215,7766.1715055766845,9349.835546393142,4928.488480417352,9456.24552275005,6097.366935328433,7148.290935315583,9739.398956298826,-9477.828678331874,-17567.81025936729,-4061.0213028757194,-3506.2589143451887,-19209.635885138257,-3240.1712317215765,-17951.28772133275
-22646.43970288728,-21052.67424332468,-2309.4603889866876,4036.677511114823,-1923.912449886924,-18864.556362754414,-4876.914777253803,9329.569967169507,6416.910573055869,6136.7687426115335,4637.053138331363,8851.791682996247,8630.250629625822,8467.37309506065,10335.88459617213,8736.597864251387,2835.173355905633,8290.127704018038,8796.01428383275,7767.551823666221,9352.219732184158,4928.300255223324,9456.935681794816,6097.8061274478305,7149.043836091692,9740.21459880628,-9474.754333496094,-17576.405876561214,-4058.950825741416,-3506.9490733899565,-19210.577011108395,-3238.602688438013,-17959.004954287877
-22641.734073036598,-21051.10570004112,-2305.633143374794,4041.194915771484,-1920.5243963944283,-18860.98008406789,-4868.005451403164,9332.958020662003,6419.67120923494,6138.713736283151,4638.684423346268,8854.11312705592,8632.383848491465,8469.569055657637,10337.766848112404,8739.358500430457,2837.4947999653054,8292.63737327174,8797.645568847654,7770.249718113949,9354.7921431692,4929.868798506886,9459.25712585449,6099.437412462736,7150.926088031969,9742.598784597296,-9473.813207525953,-17581.86440718801,-4057.5705076518807,-3507.2000403153265,-19214.466998451637,-3242.492675781249,-17967.726054944487
-22639.224403782893,-21048.21958039936,-2295.7199498226764,4045.524095234118,-1916.1952169317944,-18858.093964426134,-4859.911768059981,9335.279464721676,6422.306361951325,6141.160663805509,4639.876516241776,8856.058120727537,8634.830776013825,8472.204208374022,10339.900066978053,8741.366235833417,2839.565277099609,8295.021559062756,8798.335727892423,7772.257453516909,9356.297944721422,4931.751050447162,9461.641311645506,6101.068697477641,7152.243664390162,9744.732003462941,-9473.687724063268,-17582.680049695464,-4055.6255139802633,-3505.945205688476,-19218.04327713816,-3246.1316961991156,-17971.992492675778
-22639.287145514238,-21045.396202488948,-2286.434173583984,4046.6534463982825,-1912.9953886333265,-18857.278321918682,-4856.335489373458,9335.467689915704,6423.435713115491,6142.729207089073,4640.064741435804,8856.434571115593,8635.96012717799,8473.208076075502,10340.841192948188,8741.805427952815,2839.878985756321,8295.962685032893,8797.833794041682,7772.445678710936,9356.109719527394,4932.127500835218,9462.770662809671,6101.005955746299,7151.741730539422,9744.857486925626,-9473.374015406558,-17581.36247333727,-4054.8098714728094,-3504.6903710616257,-19219.862787347087,-3249.582491422954,-17971.678784019066
-22640.541980141086,-21043.325725354644,-2283.9245043302835,4045.3358700400895,-1912.1797461258736,-18857.842997500768,-4857.90403265702,9334.212855288855,6423.122004458777,6142.66646535773,4639.688291047748,8855.869895533511,8635.332709864566,8472.831625687446,10340.464742560134,8740.738818519992,2838.435925935444,8295.084300794098,8797.394601922284,7772.194711785566,9354.917626631886,4931.500083521792,9462.143245496247,6100.127571507504,7150.424154181229,9743.853619224146,-9471.366280003596,-17575.903942710473,-4056.252931293688,-3505.694238763106,-19219.862787347087,-3253.597962228875,-17969.984757272818
-22639.41262897692,-21041.56895687705,-2286.5596570466687,4044.018293681897,-1913.0581303646688,-18858.59589827688,-4861.982245194284,9333.585437975433,6422.682812339381,6141.725339387592,4639.813774510433,8855.430703414113,8633.95239177503,8472.015983179996,10339.900066978053,8739.421242161798,2836.6164157265102,8293.076565391139,8798.27298616108,7772.82212909899,9353.851017199064,4931.123633133737,9460.637443944026,6099.939346313476,7150.047703793173,9743.414427104748,-9467.225325734991,-17564.86139799419,-4057.1313155324833,-3508.5176166735196,-19216.662959048615,-3252.71957799008,-17968.98088957134
-22637.15392664859,-21041.129764757658,-2289.9477105391647,4042.512492129677,-1915.0658657676288,-18860.101699829094,-4867.566259283768,9332.707053736636,6421.7416863692415,6139.96857091,4639.876516241776,8854.489577443974,8632.321106760124,8470.572923359117,10338.457007157174,8738.229149266292,2834.7969055175777,8290.504154406095,8799.527820787931,7772.947612561677,9352.407957378184,4930.1825071636,9459.068900660464,6100.315796701531,7150.549637643913,9743.351685373405,-9463.96275570518,-17554.19530366596,-4056.378414756373,-3511.905670166015,-19209.886852063628,-3244.625894646895,-17967.412346287776
-22637.342151842615,-21041.44347341437,-2291.390770360043,4040.755723652087,-1917.0736011705897,-18861.921210038032,-4873.401240298622,9330.950285259045,6420.424110011049,6137.835352044356,4639.186357197008,8852.795550697729,8630.627080013877,8469.129863538239,10336.762980410924,8736.974314639441,2833.3538456967,8288.370935540452,8799.653304250616,7772.006486591539,9351.02763928865,4928.613963880037,9457.814066033614,6100.6295053582435,7150.863346300625,9742.912493254007,-9464.088239167864,-17549.86612420333,-4054.9980966668377,-3513.285988255551,-19200.601075824932,-3233.646091661955,-17962.455749511715
-22640.730205335112,-21042.25911592182,-2290.763353046618,4039.187180368524,-1918.516660991468,-18863.740720246966,-4876.475585134404,9328.942549856085,6419.1692753842,6136.266808760793,4637.806039107473,8850.85055702611,8629.121278461656,8467.937770642731,10335.63362924676,8735.405771355878,2832.161752801192,8286.802392256886,8797.582827116314,7770.124234651263,9349.898288124483,4927.1709040591595,9456.308264481391,6099.562895925421,7150.047703793173,9741.469433433129,-9467.099842272306,-17551.560150949575,-4054.3079376220694,-3511.403736315275,-19192.319167287726,-3224.924991005345,-17955.491417332694
-22645.373093454455,-21045.270719026263,-2289.696743613795,4038.120570935701,-1919.9597208123453,-18866.06216430664,-4875.7854260896365,9326.934814453123,6417.977182488692,6135.827616641395,4636.049270629882,8849.282013742546,8628.242894222862,8466.871161209907,10334.567019813936,8733.774486340973,2830.969659905684,8285.986749749434,8794.069290161131,7767.489081934877,9348.831678691662,4925.72784423828,9454.80246292917,6097.617902253803,7147.977226658872,9739.775406686882,-9470.236928839431,-17559.716576024104,-4054.935354935495,-3508.329391479492,-19189.621272839995,-3222.2270965576167,-17951.915138646174
-22649.01211387233,-21050.290057533664,-2290.198677464535,4037.8696040103296,-1922.1556814093335,-18868.38360836631,-4874.405108000104,9325.36627116956,6416.534122667814,6135.764874910053,4634.167018689607,8848.089920847038,8627.991927297491,8465.553584851716,10332.559284410976,8732.331426520095,2829.840308741519,8285.547557630036,8791.371395713404,7764.916670949835,9347.702327527497,4923.97107576069,9453.73585349635,6096.174842432924,7145.781266061882,9738.897022448087,-9471.93095558568,-17575.15104193436,-4056.06470609966,-3509.082292255602,-19191.252557854903,-3226.3053090948806,-17955.365933870013
-22650.14146503649,-21054.05456141421,-2291.9554459421256,4039.124438637181,-1923.912449886924,-18868.948283948397,-4877.353969373201,9324.738853856135,6415.530254966334,6135.70213317871,4632.661217137385,8847.39976180227,8628.556602879571,8464.926167538291,10330.990741127414,8731.892234400697,2829.714825278834,8285.673041092721,8790.869461862663,7763.599094591643,9347.890552721523,4923.21817498458,9453.610370033664,6095.672908582184,7144.400947972347,9738.897022448087,-9472.49563116776,-17589.26793148643,-4056.754865144428,-3513.097763061523,-19192.381909019063,-3234.148025512695,-17962.330266049034
-22649.137597335008,-21054.493753533607,-2294.8415655838808,4040.504756726716,-1923.8497081555813,-18867.254257202145,-4885.259427522356,9324.927079050163,6415.718480160361,6136.4550339548205,4631.845574629934,8847.525245264957,8629.685954043738,8465.992776971116,10332.057350560235,8732.519651714123,2830.8441764429995,8286.927875719572,8791.685104370115,7764.101028442383,9349.961029855827,4924.159300954718,9454.927946391856,6096.174842432924,7144.589173166375,9739.524439761512,-9472.934823287162,-17592.0285676655,-4057.758732845908,-3514.7917898077712,-19194.452386153367,-3244.7513781095804,-17967.224121093746
-22646.37696115594,-21051.419408697828,-2297.727685225637,4041.132174040141,-1922.2811648720187,-18864.49362102308,-4890.404249492444,9325.930946751645,6417.161539981239,6138.650994551808,4632.347508480673,8848.90556335449,8631.379980789987,8468.6279296875,10335.319920590047,8734.025453266344,2833.3538456967,8289.312061510587,8793.065422459651,7766.29698903937,9352.721666034897,4926.229778089021,9457.563099108243,6097.868869179173,7146.659650300678,9741.343949970445,-9473.248531943873,-17582.366341038753,-4058.0724415026207,-3512.6585709421256,-19198.844307347343,-3255.417472437808,-17969.922015541477
-22642.86342420076,-21046.77652057848,-2297.727685225637,4040.8812071147713,-1920.5243963944283,-18862.925077739517,-4886.0750700298095,9327.499490035207,6418.730083264802,6140.846955148797,4633.978793495579,8850.411364906711,8632.760298879522,8471.074857209856,10337.955073306432,8735.468513087222,2835.926256681744,8291.38253864489,8794.257515355159,7768.555691367701,9354.54117624383,4928.112030029296,9460.072768361944,6099.625637656764,7148.855610897665,9743.414427104748,-9472.370147705074,-17567.496550710577,-4056.06470609966,-3510.337126882452,-19202.169619108496,-3260.5622944078946,-17973.31006903397
-22641.483106111224,-21044.51781825015,-2295.406241165964,4038.685246517783,-1921.3400389018807,-18864.43087929173,-4877.479452835885,9327.37400657252,6418.165407682719,6139.7803457159725,4634.857177734374,8849.972172787313,8631.881914640726,8470.823890284486,10337.202172530324,8734.527387117083,2836.051740144428,8291.257055182205,8794.069290161131,7768.743916561728,9353.976500661747,4928.425738686009,9460.386477018656,6100.002088044817,7149.169319554378,9743.665394030118,-9470.362412302115,-17553.756111546565,-4053.55503684596,-3511.0900276585626,-19201.604943526418,-3257.8643999601663,-17975.945221750357
-22642.737940738072,-21046.149103265052,-2295.092532509251,4035.9246103387127,-1924.6653506630344,-18867.379740664834,-4872.271889134457,9325.303529438219,6415.342029772306,6135.890358372738,4634.104276958265,8847.964437384353,8628.995794998971,8468.063254105416,10334.62976154528,8731.892234400697,2833.1656205026725,8289.186578047902,8793.128164190994,7766.924406352795,9351.466831408048,4927.421870984529,9458.817933735092,6099.374670731393,7148.1654518528985,9742.347817671924,-9468.103709973786,-17542.39985817357,-4052.2374604877673,-3513.725180374948,-19197.714956183176,-3247.888464676706,-17974.75312885485
-22642.737940738072,-21049.286189832183,-2297.476718300267,4034.418808786492,-1926.9240529913648,-18868.320866634967,-4871.707213552374,9323.86046961734,6412.706877055921,6133.69439777575,4632.974925794099,8845.956701981393,8626.799834401982,8465.867293508429,10333.814119037828,8730.386432848476,2829.7775670101764,8287.806259958366,8792.75171380294,7764.853929218493,9349.459096005088,4926.480745014391,9457.876807764957,6099.060962074681,7147.475292808131,9741.908625552527,-9466.535166690222,-17534.557141755755,-4051.547301442999,-3515.4819488525386,-19191.56626651161,-3234.77544282612,-17969.60830688476
-22639.224403782893,-21051.168441772457,-2298.9197781211446,4034.230583592464,-1925.9829270212272,-18866.43861469469,-4873.150273373252,9324.299661736739,6412.832360518605,6135.137457596627,4633.225892719469,8845.768476787365,8626.73709267064,8466.369227359166,10335.570887515416,8730.700141505193,2828.8991827713808,8288.496419003135,8793.190905922336,7764.602962293123,9349.333612542403,4926.731711939761,9458.94341719778,6099.813862850791,7148.416418778268,9743.288943642065,-9464.276464361892,-17532.98859847219,-4050.982625860917,-3514.415339419716,-19184.53919260125,-3224.4857988859476,-17962.706716437086
-22635.083449514288,-21050.41554099635,-2299.5471954345694,4035.799126876027,-1922.5948735287316,-18864.11717063502,-4874.028657612047,9326.119171945673,6415.906705354389,6138.149060701068,4635.1081446597445,8847.713470458983,8628.49386114823,8468.753413150182,10337.57862291838,8732.268684788753,2830.9069181743416,8290.315929212067,8794.257515355159,7766.1715055766845,9350.77667236328,4927.923804835269,9461.076636063424,6101.4451478656965,7151.051571494654,9745.296679045023,-9461.264861257452,-17541.270507009405,-4051.7355266370264,-3510.337126882452,-19181.653072959496,-3221.8506461695615,-17958.314795243106
-22636.024575484425,-21049.09796463816,-2303.4999245091485,4037.681378816303,-1919.520528692948,-18863.991687172336,-4875.408975701584,9327.123039647153,6418.165407682719,6139.717603984632,4635.923787167198,8849.344755473889,8630.18788789448,8470.008247777034,10337.955073306432,8733.398035952916,2832.726428383274,8291.068829988177,8794.633965743215,7767.04988981548,9351.717798333417,4928.1747717606395,9461.264861257452,6101.696114791065,7152.118180927477,9745.610387701738,-9463.460821854442,-17555.5756217555,-4054.872613204152,-3507.9529410914365,-19185.354835108705,-3227.936594109786,-17959.820596795333
-22641.483106111224,-21049.788123682923,-2311.9700582403884,4037.304928428248,-1919.2695617675777,-18864.99555487381,-4878.232353611996,9325.930946751645,6417.600732100636,6139.40389532792,4633.853310032894,8848.84282162315,8629.999662700451,8469.004380075556,10337.076689067639,8732.645135176808,2832.412719726562,8289.87673709267,8793.25364765368,7766.108763845343,9350.52570543791,4926.731711939761,9458.880675466435,6099.625637656764,7149.796736867804,9743.414427104748,-9471.178054809568,-17564.04575548674,-4059.139050935444,-3509.270517449629,-19188.868372063887,-3238.414463243986,-17963.208650287826
-22645.749543842518,-21051.48215042917,-2319.6872911955174,4035.422676487972,-1921.0890719765107,-18865.748455649926,-4881.369440179122,9324.174178274052,6415.906705354389,6138.2745441637535,4630.465256540399,8846.960569682873,8628.870311536286,8466.557452553196,10335.068953664679,8731.202075355932,2831.095143368369,8287.680776495681,8791.24591225072,7764.351995367752,9348.141519646895,4924.5357513427725,9455.806330630652,6096.865001477692,7146.032232987252,9740.089115343597,-9477.765936600532,-17565.237848382247,-4062.401620965255,-3510.9645441958774,-19187.55079570569,-3248.9550741095286,-17964.83993530273
-22646.000510767884,-21051.419408697828,-2318.620681762695,4034.167841861122,-1922.406648334704,-18866.689581620063,-4882.310566149259,9323.985953080026,6414.902837652909,6137.4589016563,4628.896713256835,8845.580251593337,8628.431119416886,8464.42423368755,10332.62202614232,8730.825624967874,2830.7186929803142,8286.112233212118,8790.430269743265,7763.599094591643,9346.823943288702,4922.841724596525,9453.673111765009,6095.484683388157,7143.96175585295,9737.830413015265,-9479.459963346782,-17565.363331844932,-4063.2800052040498,-3511.02728592722,-19185.417576840046,-3257.5506913034537,-17966.784928974346
-22644.36922575298,-21049.47441502621,-2309.397647255345,4033.289457622327,-1922.7830987227587,-18868.44635009765,-4879.298963044817,9324.61337039345,6415.216546309621,6136.894226074218,4629.210421913548,8845.956701981393,8628.682086342258,8464.23600849352,10331.555416709496,8731.641267475328,2831.659818950452,8285.735782824062,8791.120428788034,7764.791187487149,9347.32587713944,4922.653499402498,9453.17117791427,6095.672908582184,7144.275464509662,9737.70492955258,-9477.640453137848,-17564.735914531502,-4062.5898461592815,-3511.2782528525895,-19186.797894929583,-3263.8876061690476,-17969.48282342208
-22642.800682469417,-21047.780388279964,-2300.6765465987355,4032.411073383532,-1922.908582185444,-18869.701184724505,-4874.028657612047,9325.115304244193,6416.596864399156,6136.580517417506,4630.778965197112,8847.838953921668,8629.121278461656,8465.930035239771,10332.182834022922,8733.335294221575,2833.1656205026725,8286.614167062857,8792.50074687757,7766.924406352795,9348.706195228977,4924.0338174920325,9454.175045615748,6096.739518015008,7145.96949125591,9739.085247642115,-9475.758201197572,-17560.783185456927,-4061.774203651829,-3513.5996969122634,-19188.55466340717,-3266.209050228721,-17970.67491631759
-22640.792947066457,-21045.96087807103,-2296.535592330129,4032.5365568462166,-1921.7792310212783,-18867.693449321545,-4869.072060835988,9326.244655408354,6418.66734153346,6137.7726103130135,4633.602343107525,8850.16039798134,8630.752563476562,8468.69067141884,10334.12782769454,8735.844963475276,2834.7341637862355,8288.810127659846,8794.50848228053,7769.183108681126,9350.839414094622,4926.668970208419,9456.433747944078,6098.621769955284,7148.22819358424,9741.21846650776,-9476.009168122942,-17551.87385960629,-4061.2095280697463,-3515.5446905838808,-19187.676279168376,-3260.9387447959493,-17969.357339959395
-22640.98117226048,-21044.141367862092,-2295.2180159719364,4033.5404245476966,-1920.3361712004007,-18864.368137560392,-4867.064325433028,9327.185781378494,6420.047659622995,6139.654862253289,4635.73556197317,8851.352490876849,8632.823040610865,8471.012115478516,10336.261046560187,8737.476248490182,2835.6125480250307,8290.943346525493,8795.951542101406,7770.124234651263,9352.156990452817,4928.802189074064,9458.378741615696,6100.378538432874,7149.733995136461,9742.536042865951,-9479.585446809464,-17541.39599047209,-4061.836945383172,-3514.8545315391134,-19186.107735884816,-3250.335392199064,-17966.094769929583
-22644.9966430664,-21044.894268638207,-2294.590598658511,4033.791391473067,-1920.3361712004007,-18863.991687172336,-4868.444643522564,9327.123039647153,6419.9221761603085,6140.282279566713,4635.672820241827,8851.289749145508,8633.19949099892,8471.576791060597,10336.762980410924,8737.225281564812,2835.173355905633,8291.068829988177,8795.826058638722,7769.183108681126,9351.52957313939,4929.053155999433,9458.629708541066,6100.692247089585,7149.6712534051185,9742.159592477896,-9484.542043585523,-17535.874718113948,-4063.154521741365,-3513.223246524208,-19184.601934332597,-3240.2967151842618,-17962.26752431769
-22649.89049811112,-21049.348931563527,-2295.2180159719364,4033.60316627904,-1921.4027806332235,-18866.62683988872,-4870.013186806126,9326.746589259095,6418.730083264802,6139.654862253289,4634.543469077662,8851.038782220137,8632.007398103411,8471.137598941199,10336.010079634816,8736.284155594674,2833.9812630101246,8289.87673709267,8795.01041613127,7767.677307128905,9350.400221975224,4927.735579641241,9457.312132182871,6099.813862850791,7148.541902240952,9741.03024131373,-9485.859619943716,-17540.768573158664,-4064.2838729055297,-3512.4703457480978,-19182.97064931769,-3235.465601870888,-17961.138173153526
-22652.71387602153,-21055.058429115692,-2298.29236080772,4035.171709562602,-1922.0929396779911,-18868.948283948397,-4870.201412000154,9327.81319869192,6417.726215563322,6138.901961477179,4634.2925021522915,8851.415232608191,8631.379980789987,8470.949373747173,10335.947337903472,8736.095930400646,2833.3538456967,8289.500286704615,8795.57509171335,7767.489081934877,9350.149255049855,4926.480745014391,9456.371006212736,6098.621769955284,7147.412551076788,9740.528307462992,-9482.346082988535,-17553.12869423314,-4065.4132240696954,-3512.4703457480978,-19183.2843579744,-3236.2812443783405,-17964.02429279528
-22654.09419411107,-21058.195515682815,-2302.4960568076685,4038.3715378610714,-1922.0301979466487,-18869.63844299316,-4872.020922209087,9330.385609676963,6417.977182488692,6138.650994551808,4635.73556197317,8852.607325503699,8631.94465637207,8471.012115478516,10337.390397724352,8737.288023296154,2833.9812630101246,8290.441412674752,8798.147502698395,7769.371333875154,9351.215864482676,4926.794453671104,9457.123906988845,6098.621769955284,7147.977226658872,9741.21846650776,-9477.891420063219,-17562.16350354646,-4066.2916083084906,-3512.407604016756,-19186.860636660924,-3239.4810726768087,-17967.161379362406
-22654.09419411107,-21057.00342278731,-2304.378308747944,4041.069432308799,-1921.6537475585933,-18869.826668187194,-4875.910909552323,9332.581570273953,6418.604599802116,6138.776478014493,4638.2452312268715,8853.987643593233,8632.760298879522,8471.074857209856,10339.398133127312,8738.982050042403,2835.047872442948,8291.508022107575,8800.908138877465,7771.755519666168,9353.035374691613,4928.3629969546655,9458.817933735092,6099.876604582133,7149.9849620618315,9742.724268059981,-9473.750465794612,-17563.983013755394,-4065.6014492637223,-3511.52921977796,-19191.629008242955,-3241.990741930509,-17968.227988795228
-22652.211942170798,-21054.11730314556,-2303.7508914345185,4041.132174040141,-1922.5948735287316,-18871.206986276724,-4878.797029194078,9331.765927766495,6417.224281712582,6137.396159924958,4639.625549316404,8853.422968011153,8631.505464252672,8469.820022583008,10339.335391395967,8738.417374460318,2834.1694882041525,8290.504154406095,8800.845397146124,7771.755519666168,9353.223599885636,4928.1747717606395,9458.629708541066,6099.437412462736,7149.796736867804,9742.661526328639,-9469.672253257348,-17563.041887785257,-4063.719197323447,-3510.9645441958774,-19195.142545198138,-3242.9946096319895,-17970.9886249743
-22650.64339888723,-21052.799726787365,-2302.5587985390102,4039.0616969058383,-1924.7908341257196,-18873.34020514237,-4878.483320537366,9328.754324662055,6413.773486488744,6134.196331626489,4639.060873734323,8850.85055702611,8627.929185566147,8466.871161209907,10336.323788291527,8735.782221743933,2830.781434711657,8287.555293032996,8798.649436549136,7769.183108681126,9350.588447169252,4925.22591038754,9456.120039287363,6096.425809358295,7146.47142510665,9739.71266495554,-9466.911617078278,-17562.477212203175,-4063.02903827868,-3512.721312673468,-19197.714956183176,-3245.441537154348,-17976.76086425781
-22650.64339888723,-21052.73698505602,-2300.425579673365,4037.9323457416726,-1925.857443558542,-18873.90488072445,-4875.534459164268,9326.934814453123,6411.012850309672,6131.561178910104,4638.872648540296,8849.031046817174,8625.105807655735,8464.17326676218,10333.249443455745,8734.527387117083,2828.020798532586,8285.42207416735,8797.080893265571,7767.04988981548,9347.953294452867,4922.904466327867,9454.112303884403,6093.978881835937,7143.585305464894,9736.638320119757,-9466.47242495888,-17564.798656262847,-4064.158389442845,-3515.7329157779086,-19199.785433317484,-3250.147167005037,-17980.399884675677
-22650.706140618568,-21053.050693712732,-2297.1630096435542,4038.308796129728,-1924.7908341257196,-18871.834403590154,-4874.028657612047,9327.311264841177,6410.7618833843035,6130.808278133994,4640.064741435804,8849.093788548518,8624.917582461705,8463.1693990607,10332.057350560235,8735.405771355878,2827.9580568012434,8285.108365510638,8796.641701146174,7766.547955964739,9347.32587713944,4922.904466327867,9453.98682042172,6093.853398373252,7143.271596808182,9735.885419343645,-9468.166451705129,-17570.508153815015,-4064.848548487613,-3517.175975598787,-19198.65608215332,-3251.9039354826273,-17977.952957153317
-22650.517915424545,-21054.11730314556,-2294.590598658511,4038.998955174496,-1923.661482961554,-18869.63844299316,-4876.35010167172,9328.06416561729,6412.016718011153,6131.184728522049,4641.319576062654,8849.532980667916,8626.046933625872,8463.483107717413,10331.931867097552,8735.907705206617,2829.0874079654086,8285.17110724198,8795.76331690738,7766.610697696082,9347.451360602126,4923.406400178607,9454.049562153063,6094.418073955335,7143.459822002209,9736.324611463044,-9470.989829615542,-17571.32379632247,-4063.5937138607615,-3516.8622669420743,-19192.57013421309,-3246.5708883185134,-17971.176850168325
-22649.137597335008,-21054.68197872764,-2291.767220748098,4040.191048070003,-1922.6576152600735,-18868.44635009765,-4879.110737850791,9328.628841199372,6414.338162070826,6132.376821417557,4642.699894152189,8850.16039798134,8627.803702103462,8464.800684075606,10332.057350560235,8736.158672131989,2830.2167591295743,8285.484815898693,8795.135899593955,7766.924406352795,9348.392486572266,4924.159300954718,9453.924078690376,6094.857266074732,7143.334338539525,9737.202995701839,-9472.370147705074,-17560.783185456927,-4060.3938855622946,-3515.419207121196,-19184.476450869908,-3235.0891514828327,-17964.087034526623
-22643.93003363358,-21053.552627563473,-2287.6890082108343,4041.4458826968535,-1920.649879857113,-18866.564098157374,-4879.236221313476,9329.758192363535,6417.600732100636,6134.510040283201,4644.142953973067,8851.728941264904,8630.564338282535,8466.933902941251,10332.433800948293,8737.225281564812,2832.099011069849,8286.802392256886,8796.077025564093,7767.9910157856175,9350.839414094622,4926.355261551706,9454.676979466489,6096.425809358295,7144.777398360402,9739.085247642115,-9470.236928839431,-17551.05821709884,-4057.5077659205376,-3513.5996969122634,-19180.02178794459,-3224.79950754266,-17960.698981034126
-22637.342151842615,-21053.17617717542,-2285.116597225792,4040.755723652087,-1918.2656940660977,-18864.681846217103,-4877.793161492598,9330.385609676963,6420.235884817022,6136.078583566766,4643.578278390984,8852.795550697729,8633.011265804895,8468.251479299443,10332.057350560235,8738.166407534949,2833.9812630101246,8288.245452077763,8797.582827116314,7768.932141755755,9352.78440776624,4928.3629969546655,9455.429880242598,6098.370803029913,7146.973358957392,9740.716532657021,-9466.221458033511,-17554.88546271073,-4058.323408427991,-3514.038889031661,-19182.15500681024,-3223.105480796412,-17963.208650287826
-22633.577647962065,-21053.17617717542,-2284.991113763106,4039.689114219264,-1915.5677996183692,-18863.61523678428,-4875.5972008956105,9330.887543527702,6421.992653294613,6137.396159924958,4642.009735107421,8852.983775891753,8634.45432562577,8469.067121806896,10331.36719151547,8738.856566579716,2835.549806293688,8289.688511898643,8798.523953086451,7769.434075606495,9353.725533736377,4929.3668646561455,9455.994555824682,6099.186445537366,7148.604643972296,9741.343949970445,-9463.96275570518,-17564.04575548674,-4060.3938855622946,-3515.7329157779086,-19186.672411466898,-3227.371918527703,-17969.79653207879
-22632.824747185958,-21050.791991384405,-2285.618531076532,4040.4420149953735,-1912.1170043945312,-18861.921210038032,-4872.209147403114,9331.891411229182,6423.8749052348885,6139.7803457159725,4641.382317793997,8853.61119320518,8635.834643715305,8471.263082403884,10332.684767873665,8739.672209087172,2837.181091308593,8291.947214226973,8798.523953086451,7770.061492919922,9354.917626631886,4930.93540793971,9456.935681794816,6099.374670731393,7149.545769942433,9741.594916895818,-9464.903881675318,-17565.11236491956,-4059.3900178608137,-3515.9211409719364,-19189.11933898925,-3232.3912570351044,-17976.447155601098
-22634.267807006832,-21047.278454429223,-2287.877233404862,4042.700717323704,-1909.2936264841176,-18858.470414814197,-4868.8210939106175,9333.208987587375,6426.133607563218,6143.41936613384,4641.131350868625,8855.054253026057,8637.465928730211,8475.090328015778,10336.825722142268,8739.797692549855,2838.812376323499,8294.89607560007,8797.143634996915,7770.688910233345,9356.548911646792,4933.382335462068,9458.25325815301,6099.562895925421,7149.6712534051185,9741.783142089842,-9467.47629266036,-17558.64996659128,-4057.319540726511,-3514.1016307630034,-19190.687882272818,-3238.9791388260687,-17979.70972563091
-22638.15779435007,-21045.58442768297,-2293.461247494346,4045.08490311472,-1907.9760501259248,-18854.51768573961,-4866.060457731548,9334.903014333624,6428.329568160208,6147.623062133788,4640.127483167145,8856.622796309619,8639.6618893272,8478.85483189633,10341.468610261614,8739.546725624483,2840.5691448010894,8298.033162167198,8795.57509171335,7771.002618890059,9357.929229736326,4934.950878745632,9460.072768361944,6099.437412462736,7148.918352629008,9742.034109015212,-9470.299670570772,-17553.003210770454,-4058.1979249653054,-3511.6547032406447,-19195.01706173545,-3247.5747560199934,-17980.02343428762
-22643.42809978284,-21045.64716941432,-2299.170745046515,4047.155380249023,-1907.9760501259248,-18852.760917262025,-4862.107728656969,9336.03236549779,6429.772627981085,6150.571923506886,4638.307972958213,8856.999246697676,8641.481399536131,8480.61160037392,10343.476345664576,8739.358500430457,2841.510270771227,8299.60170545076,8794.884932668585,7770.8143936960305,9358.117454930354,4934.69991182026,9461.578569914163,6099.060962074681,7148.039968390212,9741.908625552527,-9472.872081555815,-17548.485806113793,-4061.3977532637746,-3511.2782528525895,-19201.22849313836,-3252.594094527394,-17979.584242168225
-22646.37696115594,-21045.270719026263,-2299.2334867778577,4048.096506219161,-1908.2270170512948,-18853.262851112762,-4862.295953850997,9335.467689915704,6430.462787025853,6151.324824282997,4636.99039660002,8856.309087652908,8641.857849924185,8479.85869959781,10342.033285843696,8738.919308311059,2841.3220455772,8298.59783774928,8794.696707474557,7770.186976382606,9357.427295885587,4933.256851999383,9461.264861257452,6098.684511686625,7147.663518002158,9741.155724776416,-9474.12691618267,-17540.329381039268,-4063.217263472707,-3514.227114225688,-19206.749765496505,-3249.3942662289264,-17977.639248496605
-22644.87115960372,-21042.698308041217,-2292.833830180921,4048.0337644878177,-1907.5368580065276,-18853.764784963503,-4873.08753164191,9334.589305676913,6431.090204339278,6151.073857357627,4637.115880062705,8856.058120727537,8641.606882998816,8478.352898045587,10339.649100052682,8738.731083117033,2841.1965621145146,8297.092036197058,8795.01041613127,7770.124234651263,9357.176328960217,4932.503951223272,9459.696317973889,6098.80999514931,7148.102710121556,9740.842016119705,-9472.432889436419,-17531.169088263257,-4060.5821107563215,-3518.368068494294,-19211.518137078532,-3239.6065561394935,-17973.498294228
-22642.298748618676,-21040.000413593487,-2285.7440145392166,4048.159247950504,-1906.2192816483343,-18853.827526694848,-4884.192818089536,9334.84027260228,6431.466654727333,6150.948373894942,4638.684423346268,8856.309087652908,8641.732366461501,8477.411772075451,10338.58249061986,8739.421242161798,2841.4475290398846,8296.966552734375,8796.453475952145,7770.751651964688,9357.615521079617,4933.131368536698,9458.692450272409,6099.500154194078,7149.357544748406,9741.469433433129,-9469.609511526007,-17527.90651823345,-4056.1901895623455,-3520.4385456285977,-19216.91392597399,-3229.191428736636,-17968.290730526573
-22641.483106111224,-21040.50234744423,-2284.4264381810235,4049.100373920641,-1905.7173477975944,-18854.705910933644,-4882.937983462684,9335.906882035106,6431.40391299599,6150.634665238229,4641.005867405941,8857.124730160362,8642.359783774926,8476.909838224712,10338.58249061986,8740.801560251335,2842.1376880846524,8297.343003122429,8798.963145205846,7771.943744860195,9358.305680124382,4934.19797796952,9458.692450272409,6100.504021895558,7151.1770549573375,9742.473301134609,-9468.919352481238,-17533.302307128903,-4053.931487234015,-3519.5601613898025,-19227.517278570875,-3225.4896665874276,-17966.345736854953
-22640.91843052914,-21043.513950548677,-2289.508518419768,4049.916016428094,-1906.5329903050472,-18856.650904605256,-4875.09526704487,9337.098974930612,6430.901979145249,6149.505314074064,4642.637152420846,8858.756015175268,8642.67349243164,8476.345162642627,10338.394265425832,8742.244620072213,2843.32978098016,8297.217519659742,8801.97474831029,7773.637771606444,9359.24680609452,4934.8253952829455,9458.880675466435,6101.758856522409,7152.996565166272,9743.414427104748,-9469.98596191406,-17546.16436205412,-4053.366811651932,-3518.117101568924,-19248.97495069001,-3231.512872796309,-17970.925883242955
-22640.16552975303,-21046.086361533715,-2296.096400210732,4047.908281025133,-1908.85443436472,-18859.035090396275,-4872.773822985197,9336.722524542556,6428.894243742288,6146.744677894993,4642.009735107421,8859.383432488692,8641.104949148077,8474.713877627722,10337.264914261666,8742.495586997584,2843.58074790553,8295.711718107523,8803.417808131166,7774.6416393079235,9359.121322631834,4934.19797796952,9458.378741615696,6102.511757298519,7153.184790360299,9743.477168836089,-9470.550637496144,-17560.908668919612,-4054.3079376220694,-3517.426942524157,-19279.090981734425,-3242.2417088558796,-17977.325539839894
-22640.228271484368,-21047.403937891908,-2301.0529969867903,4043.202651174444,-1912.4934547825865,-18861.356534455954,-4877.542194567228,9334.275597020196,6425.443448518451,6142.540981895045,4640.001999704461,8857.689405742443,8637.591412192896,8471.827757985966,10335.13169539602,8740.67607678865,2841.82397942794,8293.076565391139,8802.664907355056,7773.951480263157,9357.7410045423,4931.93927564119,9456.747456600791,6102.198048641807,7151.678988808079,9742.410559403268,-9470.550637496144,-17571.449279785153,-4057.1313155324833,-3517.426942524157,-19310.96378125642,-3250.649100855777,-17980.21165948165
-22641.483106111224,-21047.90587174265,-2305.131209524054,4040.3165315326887,-1915.3795744243416,-18862.98781947085,-4881.7458905671765,9332.205119885895,6422.620070608038,6139.341153596576,4638.809906808953,8855.556186876798,8634.266100431742,8469.443572194952,10333.186701724402,8738.417374460318,2839.377051905581,8291.006088256836,8801.786523116261,7772.696645636307,9356.109719527394,4929.555089850174,9455.367138511256,6101.507889597039,7150.424154181229,9741.21846650776,-9470.801604421513,-17578.915545814914,-4061.0213028757194,-3518.6190354196647,-19341.3307792262,-3254.3508630049846,-17981.654719302525
-22642.737940738072,-21048.094096936675,-2307.1389449270146,4040.755723652087,-1915.6932830810545,-18863.740720246966,-4880.553797671669,9331.765927766495,6420.863302130448,6137.96083550704,4639.625549316404,8854.489577443974,8632.885782342206,8468.251479299443,10332.308317485607,8737.789957146895,2837.432058233964,8290.190445749382,8802.664907355056,7772.6339039049635,9355.105851825914,4928.676705611379,9455.24165504857,6101.256922671669,7150.361412449886,9740.779274388362,-9471.617246928967,-17583.80940085963,-4065.664190995065,-3521.191446404708,-19368.49794889751,-3256.7350487960007,-17985.105514526364
-22643.30261632016,-21049.160706369497,-2306.072335494192,4040.9439488461135,-1915.5677996183692,-18864.744587948448,-4876.538326865748,9331.201252184415,6419.106533652857,6136.392292223478,4641.382317793997,8853.673934936522,8632.007398103411,8467.498578523333,10331.743641903524,8737.727215415553,2835.6125480250307,8289.186578047902,8803.794258519221,7773.073096024362,9354.666659706516,4928.488480417352,9454.865204660513,6101.005955746299,7150.361412449886,9740.653790925677,-9473.813207525953,-17578.727320620885,-4069.554178338301,-3523.450148733038,-19387.19498483758,-3258.6173007362763,-17988.681793212887
-22642.737940738072,-21050.101832339635,-2303.562666240491,4038.998955174496,-1917.136342901932,-18865.936680843955,-4873.840432418019,9329.507225438167,6417.600732100636,6134.572782014545,4642.574410689504,8852.607325503699,8630.752563476562,8467.310353329307,10331.304449784127,8736.911572908097,2834.232229935495,8287.680776495681,8803.794258519221,7772.884870830334,9354.7921431692,4928.237513491981,9453.924078690376,6100.6295053582435,7150.047703793173,9740.591049194334,-9476.071909854287,-17562.979146053916,-4070.118853920384,-3523.0736983449838,-19391.900614688268,-3254.790055124383,-17988.43082628752
-22641.16939745451,-21049.47441502621,-2299.2962285092,4036.8657363088505,-1919.018594842208,-18865.999422575296,-4873.714948955335,9327.938682154607,6417.537990369294,6134.572782014545,4643.264569734271,8851.91716645893,8630.250629625822,8468.12599583676,10331.994608828894,8736.535122520045,2834.420455129523,8287.86900168971,8804.170708907277,7772.571162173623,9355.2313352886,4928.927672536749,9454.488754272461,6101.382406134354,7150.988829763312,9741.155724776416,-9475.883684660259,-17547.92113053171,-4067.797409860711,-3520.2503204345694,-19385.061765971932,-3245.190570228978,-17984.28987201891
-22640.291013215716,-21049.09796463816,-2294.339631733141,4035.673643413343,-1920.3361712004007,-18865.748455649926,-4876.977518985145,9326.80933099044,6417.9144407573485,6136.141325298108,4643.201828002929,8851.10152395148,8630.68982174522,8468.878896612867,10333.186701724402,8736.848831176756,2835.047872442948,8289.437544973272,8804.107967175934,7771.692777934825,9355.105851825914,4930.119765432257,9456.308264481391,6101.696114791065,7151.992697464792,9741.657658627159,-9473.624982331927,-17541.584215666117,-4065.2877406070097,-3517.113233867444,-19373.95647952431,-3236.0930191843127,-17978.768599660772
-22641.483106111224,-21051.04295830977,-2291.704479016756,4034.60703398052,-1921.5282640959083,-18866.250389500663,-4883.8791094328235,9325.805463288958,6417.287023443924,6137.082451268246,4641.382317793997,8849.407497205231,8630.878046939246,8468.6279296875,10332.87299306769,8736.095930400646,2834.2949716668377,8289.939478824012,8801.472814459548,7769.559559069183,9354.039242393092,4929.868798506886,9456.559231406765,6099.562895925421,7150.549637643913,9740.591049194334,-9472.18192251105,-17542.086149516857,-4063.7819390547897,-3515.042756733141,-19363.666835584132,-3232.0148066470488,-17975.882480019016
-22644.87115960372,-21054.932945653007,-2292.394638061523,4032.4738151148736,-1922.5948735287316,-18866.940548545437,-4893.478594328228,9324.236920005394,6415.969447085731,6136.580517417506,4637.743297376131,8847.086053145558,8629.74869577508,8467.435836791992,10329.798648231907,8733.711744609633,2832.6009449205894,8288.496419003135,8797.457343653628,7766.924406352795,9351.906023527446,4927.672837909899,9454.049562153063,6095.923875507555,7147.287067614103,9738.018638209292,-9474.064174451325,-17546.66629590486,-4064.4093563682154,-3515.419207121196,-19355.25944358424,-3235.0891514828327,-17978.9568248548
-22648.44743829024,-21058.571966070875,-2295.0297907779086,4030.215112786544,-1922.5321317973887,-18867.003290276774,-4902.513403641548,9322.54289325915,6415.216546309621,6136.329550492135,4633.602343107525,8844.701867354543,8628.054669028836,8466.369227359166,10326.285111276724,8730.951108430558,2831.032401637027,8286.990617450914,8794.194773623816,7764.916670949835,9349.521837736433,4925.351393850226,9451.47715116802,6093.288722791169,7144.46368970369,9735.634452418275,-9478.393353913956,-17552.501276919713,-4067.0445090846006,-3517.8661346435542,-19344.593349256007,-3241.7397750051396,-17984.854547600997
-22650.517915424545,-21059.638575503697,-2297.4139765689247,4030.026887592516,-1921.5282640959083,-18867.44248239617,-4905.399523283306,9321.664509020353,6414.777354190223,6136.894226074218,4630.841706928452,8843.13332407098,8626.988059596011,8465.867293508429,10325.594952231959,8729.319823415655,2829.714825278834,8286.488683600173,8791.936071295484,7763.222644203587,9347.827810990182,4923.72010883532,9451.163442511306,6091.971146432977,7142.644179494757,9734.191392597399,-9483.161725495987,-17558.963675247993,-4070.4325625770966,-3521.191446404708,-19328.28049910696,-3246.8218552438834,-17990.564045153165
-22650.455173693204,-21056.626972399255,-2297.351234837582,4033.1639741596414,-1919.3323034989205,-18867.254257202145,-4898.246965910258,9322.856601915859,6415.467513234991,6138.46276935778,4631.406382510536,8843.509774459033,8628.368377685545,8467.18486986662,10328.983005724454,8729.69627380371,2829.5893418161486,8287.86900168971,8791.183170519376,7762.595226890163,9348.204261378236,4923.908334029347,9453.48488657098,6092.410338552374,7142.267729106701,9734.75606817948,-9485.294944361634,-17566.806391665807,-4072.314814517372,-3523.5756321957238,-19308.07766161467,-3250.0844252736943,-17995.771608854593
-22648.57292175293,-21050.66650792172,-2294.1514065391134,4038.998955174496,-1915.2540909616569,-18863.991687172336,-4884.757493671616,9326.872072721782,6419.1692753842,6141.223405536852,4634.982661197059,8846.772344488845,8632.760298879522,8470.63566509046,10334.504278082595,8732.582393445466,2832.161752801192,8291.445280376232,8792.939938996964,7764.728445755806,9351.341347945363,4926.418003283048,9457.814066033614,6095.421941656815,7144.526431435032,9738.081379940637,-9481.96963260048,-17570.696379009045,-4070.620787771124,-3523.7638573897502,-19285.92983045076,-3252.7823197214225,-17998.46950330232
-22647.004378469366,-21044.70604344418,-2292.080929404811,4045.2731283087473,-1910.6112028423104,-18859.16057385896,-4872.58559779117,9332.330603348579,6425.066998130396,6143.544849596525,4638.558939883583,8851.728941264904,8637.528670461554,8474.086460314298,10338.457007157174,8736.346897326017,2836.8046409205385,8294.958817331413,8795.888800370065,7768.492949636358,9355.043110094573,4929.994281969572,9461.578569914163,6099.500154194078,7148.604643972296,9742.473301134609,-9473.687724063268,-17565.11236491956,-4066.166124845805,-3521.1287046733646,-19260.833137913753,-3252.7823197214225,-17996.71273482473
-22646.94163673802,-21039.874930130805,-2295.280757703279,4050.480692010176,-1906.9721824244448,-18856.02348729184,-4865.746749074834,9336.28333242316,6430.0235949064545,6144.235008641293,4639.876516241776,8855.681670339483,8640.226564909282,8475.843228791886,10339.272649664626,8738.793824848375,2840.7573699951167,8296.213651958262,8797.01815153423,7770.751651964688,9356.737136840818,4932.754918148642,9462.958888003699,6101.9470817164365,7151.490763614052,9745.045712119654,-9462.331470690273,-17551.999343068976,-4061.4604949951167,-3515.419207121196,-19231.78371630217,-3246.759113512541,-17990.815012078536
-22648.13372963353,-21037.051552220397,-2299.8609040912825,4052.55116914448,-1905.5291226035667,-18855.396069978407,-4864.178205791272,9336.84800800524,6431.592138190018,6143.41936613384,4637.9315225701575,8856.309087652908,8640.289306640625,8475.15306974712,10338.206040231804,8738.354632728977,2842.012204621967,8295.147042525441,8794.633965743215,7769.559559069183,9355.54504394531,4932.880401611327,9461.641311645506,6101.194180940326,7150.988829763312,9744.481036537569,-9451.602634630704,-17538.007936979593,-4058.1351832339633,-3509.8979347630548,-19200.66381755628,-3235.2146349455174,-17981.71746103387
-22649.200339066352,-21037.302519145764,-2299.5471954345694,4050.0414998907786,-1906.2192816483343,-18857.027354993315,-4865.307556955438,9334.150113557513,6430.211820100481,6141.474372462222,4634.104276958265,8853.86216013055,8638.720763357062,8472.204208374022,10335.696370978105,8735.656738281248,2840.5064030697467,8292.762856734425,8790.367528011922,7766.046022114,9352.847149497584,4930.43347408897,9458.566966809725,6098.370803029913,7148.22819358424,9741.845883821185,-9447.52442209344,-17530.855379606546,-4056.6293816817433,-3508.015682822779,-19171.739879407374,-3222.5408052143293,-17972.180717869807
-22649.827756379775,-21040.000413593487,-2295.7199498226764,4045.08490311472,-1908.1015335886095,-18859.725249441042,-4866.4996498509445,9330.260126214276,6427.137475264698,6139.40389532792,4630.402514809056,8850.725073563424,8636.901253148126,8468.69067141884,10332.998476530374,8733.021585564864,2837.8085086220185,8290.002220555354,8786.665765862715,7762.908935546873,9350.462963706568,4927.672837909899,9455.492621973941,6095.484683388157,7145.404815673827,9739.2107311048,-9452.857469257555,-17535.93745984529,-4058.260666696649,-3508.5803584048617,-19147.58431284051,-3216.517599005448,-17966.97315416838
-22650.95710754394,-21043.513950548677,-2294.4651151958265,4040.5674984580583,-1910.1720107229128,-18861.858468306687,-4867.37803408974,9327.248523109836,6423.310229652806,6138.2745441637535,4627.390911704615,8848.089920847038,8635.081742939195,8466.1182604338,10331.36719151547,8731.327558818615,2834.922388980263,8287.492551301653,8784.218838340357,7761.089425337941,9348.580711766292,4925.351393850226,9453.48488657098,6093.163239328484,7142.957888151469,9737.265737433181,-9462.896146272355,-17549.11322342722,-4062.9035548159945,-3509.8979347630548,-19127.193250154192,-3222.5408052143293,-17967.600571481802
-22653.4040350663,-21046.77652057848,-2298.166877345034,4037.61863708496,-1912.3679713199008,-18862.98781947085,-4869.699478149413,9325.930946751645,6420.110401354337,6138.149060701068,4625.696884958367,8846.333152369449,8633.324974461602,8464.67520061292,10331.1162245901,8730.511916311163,2832.9146535773025,8285.924008018092,8783.465937564246,7760.462008024515,9346.94942675139,4923.406400178607,9452.731985794868,6091.657437776264,7141.263861405221,9735.75993588096,-9471.679988660308,-17558.900933516652,-4066.605316965203,-3511.905670166015,-19112.51168502004,-3234.77544282612,-17971.365075362355
-22655.91370432,-21048.596030787412,-2303.7508914345185,4037.116703234221,-1914.438448454204,-18863.67797851562,-4872.460114328484,9326.55836406507,6419.733950966282,6138.839219745836,4626.198818809107,8846.709602757503,8632.69755714818,8465.302617926345,10332.62202614232,8731.013850161902,2833.228362234015,8286.049491480777,8785.348189504522,7761.967809576736,9347.32587713944,4923.029949790553,9453.422144839635,6092.347596821032,7142.016762181332,9735.948161074988,-9475.19352561549,-17559.214642173363,-4065.8524161890928,-3512.4703457480978,-19107.555088243986,-3243.3083182887026,-17975.19232097425
-22656.478379902084,-21049.47441502621,-2306.950719732987,4037.806862278988,-1916.0069917377673,-18864.242654097703,-4873.150273373252,9327.750456960575,6421.239752518502,6139.7803457159725,4627.5163951673,8848.84282162315,8633.19949099892,8467.68680371736,10335.068953664679,8732.519651714123,2834.922388980263,8287.806259958366,8788.736242997018,7764.540220561779,9350.086513318513,4924.347526148746,9455.492621973941,6094.920007806074,7144.902881823087,9738.144121671978,-9473.248531943873,-17553.31691942717,-4062.5898461592815,-3510.2743851511095,-19111.13136693051,-3247.512014288651,-17978.141182347346
-22656.039187782688,-21050.98021657843,-2306.8252362703015,4036.8657363088505,-1918.2656940660977,-18866.18764776932,-4874.969783582184,9327.687715229233,6420.92604386179,6139.40389532792,4628.269295943411,8849.721205861944,8633.074007536236,8468.753413150182,10336.198304828844,8733.272552490233,2835.2360976369755,8289.061094585217,8790.869461862663,7765.732313457286,9352.78440776624,4925.22591038754,9457.374873914216,6096.990484940377,7147.036100688732,9740.340082268964,-9469.797736720033,-17549.61515727796,-4060.9585611443767,-3509.0195505242596,-19117.531023527445,-3252.4058693333673,-17981.4664941085
-22655.91370432,-21053.23891890676,-2306.574269344932,4033.728649741725,-1922.0929396779911,-18870.454085500616,-4881.808632298519,9325.240787706876,6417.412506906609,6136.7687426115335,4628.269295943411,8848.15266257838,8630.501596551192,8467.12212813528,10335.319920590047,8732.645135176808,2832.726428383274,8288.057226883737,8790.994945325347,7765.355863069232,9352.470699109528,4924.786718268143,9457.625840839586,6097.115968403064,7146.910617226048,9740.465565731649,-9467.72725958573,-17548.86225650185,-4061.272269801089,-3510.4626103451374,-19121.295527407998,-3254.4763464676703,-17983.9761633622
-22656.10192951403,-21055.058429115692,-2307.8918457031245,4029.901404129831,-1925.9201852898843,-18874.53229803788,-4890.216024298416,9321.60176728901,6412.832360518605,6133.192463925009,4628.1438124807255,8845.768476787365,8626.48612574527,8464.42423368755,10333.500410381115,8731.327558818615,2829.5266000848064,8285.484815898693,8790.681236668635,7764.728445755806,9349.521837736433,4924.0338174920325,9455.931814093336,6096.363067626952,7145.906749524567,9739.085247642115,-9466.284199764852,-17542.5880833676,-4061.5859784578015,-3512.093895360043,-19119.91520931846,-3247.9512064080486,-17983.599712974144
-22655.662737394632,-21055.68584642912,-2309.8995811060854,4027.6427018015006,-1927.3632451107624,-18875.598907470696,-4891.784567581978,9319.782257080076,6410.259949533563,6130.933761596679,4628.52026286878,8844.513642160513,8623.850973028882,8463.106657329357,10332.245575754265,8730.637399773848,2828.1462819952712,8283.790789152446,8791.622362638775,7764.979412681178,9347.263135408097,4924.0338174920325,9454.175045615748,6096.112100701584,7146.032232987252,9738.081379940637,-9465.782265914113,-17531.357313457287,-4061.272269801089,-3512.0311536287004,-19116.15070543791,-3235.7165687962574,-17980.650851601047
-22654.59612796181,-21055.93681335449,-2312.346508628444,4026.827059294048,-1927.4259868421047,-18875.598907470696,-4885.384910985043,9319.468548423363,6409.569790488795,6130.055377357884,4628.771229794152,8843.697999653063,8622.909847058745,8462.541981747276,10331.680900172183,8729.947240729078,2827.769831607216,8283.037888376335,8792.626230340255,7765.104896143863,9346.447492900646,4924.0338174920325,9452.920210988896,6096.04935897024,7146.596908569335,9737.453962627209,-9466.974358809619,-17524.76943166632,-4061.5232367264593,-3510.713577270508,-19115.272321199114,-3223.983865035207,-17976.572639063783
-22652.08645870811,-21056.815197593285,-2313.162151135896,4025.8859333239097,-1927.4887285734476,-18875.598907470696,-4877.730419761256,9319.154839766652,6409.507048757452,6130.118119089227,4628.833971525492,8842.756873682925,8622.909847058745,8462.291014821905,10331.555416709496,8728.880631296257,2827.142414293791,8283.100630107676,8793.316389385021,7764.540220561779,9345.569108661854,4923.531883641293,9452.418277138157,6096.30032589561,7146.973358957392,9737.453962627209,-9467.790001317073,-17528.094743427475,-4062.9035548159945,-3510.086159957082,-19117.9074739155,-3218.8390430651207,-17973.874744616056
-22649.38856426038,-21058.320999145504,-2310.9034488075654,4024.380131771689,-1927.4259868421047,-18874.65778150056,-4873.965915880704,9318.401938990542,6409.318823563424,6131.184728522049,4628.708488062808,8841.815747712786,8623.2862974468,8462.479240015933,10331.680900172183,8728.002247057462,2826.326771786338,8283.790789152446,8793.75558150442,7763.599094591643,9344.565240960372,4922.653499402498,9452.920210988896,6096.363067626952,7146.910617226048,9738.206863403318,-9467.350809197676,-17539.13728814376,-4065.789674457751,-3511.968411897358,-19123.42874627364,-3224.9877327366876,-17975.945221750357
-22649.200339066352,-21059.387608578327,-2308.26829609118,4023.0625554134967,-1927.8651789615024,-18873.46568860505,-4873.714948955335,9317.335329557722,6409.1305983693965,6132.376821417557,4628.081070749383,8841.000105205334,8623.537264372173,8462.981173866672,10331.492674978155,8727.312088012693,2825.5111292788856,8284.355464734528,8793.567356310392,7762.595226890163,9344.439757497687,4921.649631701017,9453.73585349635,6096.04935897024,7146.47142510665,9738.897022448087,-9467.664517854388,-17550.995475367494,-4068.9895027562184,-3516.360333091334,-19133.153714631728,-3238.163496318616,-17982.407620078637
-22650.32969023052,-21058.38374087685,-2306.574269344932,4022.1841711747015,-1928.1161458868728,-18872.336337440887,-4873.652207223992,9316.833395706979,6410.008982608192,6133.44343085038,4627.6418786299855,8840.623654817278,8624.352906879625,8463.796816374126,10331.806383634867,8727.374829744036,2825.573871010228,8284.982882047954,8793.065422459651,7761.967809576736,9345.631850393194,4921.273181312961,9454.865204660513,6096.04935897024,7146.157716449938,9739.147989373456,-9468.66838555587,-17559.84205948679,-4070.118853920384,-3520.3130621659125,-19146.078511288288,-3248.6413654528164,-17987.866150705435
-22650.32969023052,-21055.874071623148,-2304.817500867341,4022.874330219469,-1926.7358277973372,-18869.952151649875,-4873.777690686677,9317.9000051398,6412.016718011153,6135.388424521998,4628.332037674752,8841.188330399364,8626.297900551242,8465.17713446366,10333.437668649773,8728.504180908201,2826.640480443051,8286.488683600173,8792.939938996964,7761.8423261140515,9347.32587713944,4921.71237343236,9456.49648967542,6096.237584164268,7145.46755740517,9739.336214567486,-9469.170319406609,-17564.86139799419,-4068.4875689054784,-3520.4385456285977,-19159.630725258277,-3252.154902407997,-17987.92889243678
-22649.765014648438,-21055.058429115692,-2302.8725071957238,4026.262383711965,-1924.163416812294,-18866.18764776932,-4876.60106859709,9320.221449199473,6413.773486488744,6138.086318969726,4629.712355764288,8842.44316502621,8628.7448280736,8466.557452553196,10334.817986739308,8730.009982460422,2827.895315069901,8288.182710346422,8792.877197265623,7761.654100920023,9348.078777915553,4922.46527420847,9457.625840839586,6095.986617238897,7144.275464509662,9739.587181492854,-9469.734994988692,-17565.049623188217,-4065.4132240696954,-3517.489684255499,-19170.48504478053,-3251.590226825914,-17986.4858326159
-22650.14146503649,-21057.94454875745,-2302.0568646882707,4028.834794697008,-1923.410516036184,-18863.67797851562,-4881.7458905671765,9321.476283826323,6414.526387264853,6139.215670133891,4630.904448659796,8843.447032727692,8629.811437506421,8466.745677747222,10333.563152112456,8730.700141505193,2828.3345071892986,8288.182710346422,8792.249779952199,7761.716842651366,9347.32587713944,4922.088823820415,9456.433747944078,6095.233716462787,7143.146113345497,9738.897022448087,-9471.554505197624,-17561.975278352435,-4062.9662965473367,-3515.7329157779086,-19173.433906153623,-3250.523617393092,-17987.99163416812
-22651.333557932,-21061.45808571263,-2303.2489575837785,4028.270119114925,-1925.1672845137743,-18863.866203709647,-4886.702487343236,9321.037091706927,6414.840095921566,6138.46276935778,4631.782832898592,8843.88622484709,8628.995794998971,8466.1182604338,10330.551549008016,8731.390300549958,2828.1462819952712,8286.865133988229,8791.936071295484,7762.532485158819,9346.384751169306,4920.70850573088,9453.73585349635,6094.418073955335,7142.706921226099,9737.453962627209,-9474.252399645353,-17557.457873695774,-4062.9662965473367,-3516.0466244346208,-19168.665534571595,-3250.0844252736943,-17987.615183780064
-22652.400167364816,-21061.646310906657,-2304.754759135999,4027.3917348761297,-1926.3593774092824,-18865.685713918585,-4889.965057373046,9320.848866512899,6415.781221891703,6137.521643387643,4632.661217137385,8844.6391256232,8628.305635954204,8465.6790683144,10328.606555336399,8732.770618639493,2828.3345071892986,8285.735782824062,8792.626230340255,7763.850061517011,9346.32200943796,4919.76737976074,9451.916343287416,6093.916140104594,7143.146113345497,9736.010902806329,-9475.758201197572,-17549.991607666012,-4064.0956477115024,-3515.858399240594,-19161.889427586604,-3248.0766898707334,-17982.658587004007
-22653.843227185695,-21059.13664165296,-2306.0095937628494,4028.772052965666,-1925.2300262451167,-18867.128773739463,-4889.839573910362,9322.166442871092,6417.161539981239,6137.521643387643,4633.665084838865,8846.207668906764,8628.870311536286,8465.930035239771,10328.606555336399,8734.213678460372,2829.212891428094,8285.42207416735,8793.75558150442,7764.979412681178,9347.01216848273,4920.143830148797,9451.602634630704,6094.041623567279,7144.024497584292,9735.571710686934,-9474.817075227433,-17540.203897576583,-4063.9074225174745,-3514.227114225688,-19157.372022929943,-3241.426066348427,-17976.509897332442
-22656.792088558796,-21057.25438971268,-2307.8291039717824,4032.0973647268193,-1923.347774304841,-18866.87780681409,-4884.8829771343035,9324.55062866211,6418.039924220035,6137.835352044356,4635.6100785104845,8848.089920847038,8629.811437506421,8466.557452553196,10329.861389963247,8734.841095773796,2830.530467786287,8285.735782824062,8794.132031892474,7765.920538651315,9347.827810990182,4921.524148238332,9452.167310212786,6094.543557418019,7144.651914897717,9736.387353194386,-9472.997565018502,-17537.631486591537,-4063.02903827868,-3513.4114717182356,-19157.3092811986,-3234.900926288805,-17973.372810765315
-22660.117400319952,-21056.6897141306,-2307.076203195672,4035.9246103387127,-1921.6537475585933,-18864.99555487381,-4877.855903223941,9327.499490035207,6418.541858070776,6138.2745441637535,4637.806039107473,8849.783947593289,8630.627080013877,8467.310353329307,10331.806383634867,8734.966579236481,2831.9735276071647,8286.551425331516,8793.818323235762,7766.924406352795,9348.831678691662,4923.092691521895,9453.422144839635,6094.857266074732,7145.091107017115,9737.516704358552,-9471.240796540911,-17545.348719546662,-4062.7780713533098,-3514.164372494346,-19162.579586631367,-3235.7793105276005,-17974.690387123508
-22660.36836724532,-21056.313263742544,-2302.3078316136407,4038.2460543983857,-1920.0852042750307,-18863.42701159025,-4875.032525313527,9329.632708900852,6418.730083264802,6138.713736283151,4638.809906808953,8850.474106638054,8631.066272133274,8467.68680371736,10334.065085963199,8735.343029624537,2832.9773953086446,8287.555293032996,8793.25364765368,7767.112631546823,9349.961029855827,4924.159300954718,9454.9906881232,6094.79452434339,7144.96562355443,9737.893154746607,-9471.679988660308,-17552.87772730777,-4062.4643626965967,-3515.293723658511,-19171.551654213352,-3242.304450587222,-17978.9568248548
-22656.039187782688,-21055.49762123509,-2297.2884931062395,4038.9362134431535,-1918.7048861854953,-18862.86233600817,-4876.85203552246,9330.511093139647,6419.1692753842,6138.96470320852,4639.060873734323,8850.662331832082,8631.756431178042,8468.063254105416,10335.88459617213,8736.409639057358,2833.6675543534125,8288.684644197161,8793.50461457905,7767.04988981548,9351.090381019992,4925.163168656198,9457.061165257503,6095.170974731444,7145.028365285772,9738.395088597346,-9475.256267346833,-17552.87772730777,-4061.8996871145146,-3516.109366165964,-19179.959046213247,-3247.4492725573086,-17982.093911421925
-22648.761146946956,-21053.615369294817,-2294.339631733141,4039.2499220998657,-1917.136342901932,-18862.485885620117,-4878.797029194078,9331.138510453073,6420.800560399105,6139.529378790604,4639.876516241776,8851.666199533562,8633.513199655632,8469.318088732267,10336.88846387361,8738.291890997634,2834.85964724892,8290.504154406095,8795.324124787981,7768.492949636358,9352.53344084087,4926.919937133788,9459.445351048518,6096.55129282098,7146.283199912623,9740.402824000308,-9476.762068899054,-17547.1682297556,-4061.335011532432,-3515.6701740465664,-19185.417576840046,-3249.8962000796664,-17983.47422951146
-22641.92229823062,-21050.541024459035,-2292.394638061523,4039.5636307565783,-1915.4423161556845,-18861.544759649976,-4878.295095343337,9332.142378154553,6422.243620219983,6140.4077630294,4641.256834331312,8853.422968011153,8635.458193327251,8470.88663201583,10336.88846387361,8740.299626400596,2835.8635149504007,8292.198181152342,8797.520085384971,7770.563426770661,9354.22746758712,4928.237513491981,9461.139377794769,6098.182577835885,7147.851743196185,9742.787009791326,-9472.18192251105,-17539.26277160644,-4060.268402099609,-3514.666306345086,-19188.7428886012,-3251.7157102885994,-17987.175991660668
-22638.032310887385,-21047.21571269788,-2291.704479016756,4040.002822875976,-1913.8110311407793,-18859.286057321646,-4875.471717432924,9333.33447105006,6422.243620219983,6141.160663805509,4642.197960301449,8854.740544369346,8636.273835834703,8471.70227452328,10336.700238679581,8741.17801063939,2836.1144818757707,8293.013823659796,8798.335727892423,7771.379069278114,9354.917626631886,4928.300255223324,9461.578569914163,6098.935478611996,7148.416418778268,9743.665394030118,-9464.966623406659,-17528.094743427475,-4058.1351832339633,-3513.223246524208,-19190.24869015342,-3250.335392199064,-17991.128720735247
-22638.47150300678,-21045.64716941432,-2294.904307315224,4039.4381472938935,-1913.4973224840664,-18857.466547112715,-4871.832697015059,9332.958020662003,6421.114269055817,6140.4077630294,4641.005867405941,8854.11312705592,8635.019001207853,8471.451307597912,10336.386530022872,8739.797692549855,2835.36158109966,8292.135439421001,8796.20250902678,7769.873267725893,9352.78440776624,4927.421870984529,9460.449218749998,6097.8061274478305,7147.161584151418,9742.159592477896,-9462.080503764904,-17515.609138890315,-4056.880348607113,-3511.3409945839326,-19190.56239881013,-3243.935735602128,-17989.811144377054
-22642.298748618676,-21046.588295384452,-2300.0491292853103,4037.116703234221,-1915.0031240362869,-18858.282189620168,-4868.507385253904,9330.322867945619,6419.5457257722555,6138.337285895096,4637.9942643015,8851.85442472759,8632.321106760124,8470.63566509046,10335.508145784075,8736.723347714073,2833.7930378160977,8290.190445749382,8792.50074687757,7767.04988981548,9348.95716215435,4926.355261551706,9458.127774690323,6095.421941656815,7144.96562355443,9739.085247642115,-9465.845007645456,-17511.405442890366,-4058.448891890676,-3511.466478046618,-19189.684014571336,-3236.469469572368,-17984.28987201891
-22645.498576917144,-21049.03522290681,-2302.8097654643807,4034.8580009058896,-1916.446183857165,-18859.913474635072,-4865.62126561215,9328.00142388595,6419.294758846884,6137.396159924958,4635.6100785104845,8850.16039798134,8630.940788670589,8470.321956433747,10335.13169539602,8734.590128848426,2832.726428383274,8289.37480324193,8790.743978399978,7765.355863069232,9347.137651945415,4926.041552894993,9456.308264481391,6094.167107029964,7144.087239315633,9737.140253970498,-9470.927087884202,-17519.938318352946,-4060.9585611443767,-3512.972279598838,-19187.299828780324,-3230.509005094829,-17977.45102330258
-22645.184868260432,-21052.109567742595,-2303.562666240491,4034.9834843685753,-1916.132475200452,-18859.286057321646,-4864.61739791067,9328.00142388595,6420.988785593133,6139.341153596576,4635.6100785104845,8850.034914518657,8632.258365028782,8471.451307597912,10336.198304828844,8734.527387117083,2833.1656205026725,8290.755121331465,8791.936071295484,7765.669571725944,9348.455228303606,4926.731711939761,9456.182781018708,6094.418073955335,7145.153848748458,9737.202995701839,-9472.056439048365,-17535.059075606496,-4061.711461920487,-3513.160504792865,-19187.17434531764,-3227.873852378443,-17971.929750944437
-22643.553583245524,-21056.313263742544,-2304.064600091231,4037.7441205476457,-1914.8148988422593,-18856.02348729184,-4866.8133585076575,9329.319000244137,6422.871037533408,6142.729207089073,4636.73942967465,8850.474106638054,8635.144484670538,8472.957109150133,10337.955073306432,8735.343029624537,2834.044004741468,8292.825598465768,8794.194773623816,7766.485214233397,9350.337480243883,4927.0454205964725,9457.18664872019,6095.108233000102,7146.408683375307,9738.520572060032,-9470.236928839431,-17548.046613994396,-4061.9624288458567,-3512.2821205540704,-19191.817233436985,-3232.579482229132,-17972.055234407122
-22643.992775364924,-21060.015025891753,-2303.6254079718337,4041.194915771484,-1914.0619980661488,-18852.82365899337,-4871.769955283717,9329.695450632194,6423.812163503546,6145.4271015368,4636.23749582391,8850.223139712683,8637.340445267526,8473.960976851615,10338.770715813887,8735.092062699166,2834.671422054893,8293.703982704563,8794.947674399926,7766.108763845343,9350.651188900596,4926.606228477076,9458.190516421668,6095.421941656815,7146.157716449938,9739.461698030169,-9468.417418630499,-17553.37966115851,-4062.4643626965967,-3511.5919615093026,-19197.777697914524,-3241.237841154399,-17976.572639063783
-22647.255345394733,-21060.45421801115,-2301.994122956928,4042.700717323704,-1914.5639319168888,-18852.38446687397,-4877.353969373201,9328.189649079972,6424.3768390856285,6146.054518850226,4633.476859644839,8848.968305085833,8637.716895655582,8474.462910702356,10338.017815037776,8733.335294221575,2835.1106141742903,8293.264790585166,8793.065422459651,7764.477478830435,9349.710062930457,4925.916069432308,9458.00229122764,6094.731782612047,7144.777398360402,9738.959764179428,-9466.974358809619,-17553.003210770454,-4062.0251705771993,-3511.8429284346726,-19201.855910451788,-3246.319921393143,-17980.650851601047
-22651.710008320053,-21059.26212511564,-2301.1784804494755,4040.3165315326887,-1916.446183857165,-18855.772520366463,-4880.992989791065,9325.115304244193,6423.812163503546,6144.109525178607,4630.1515478836845,8846.270410638106,8635.458193327251,8473.521784732215,10335.257178858707,8730.700141505193,2834.1694882041525,8291.758989032945,8789.3009185791,7761.967809576736,9347.953294452867,4924.849459999486,9456.057297556023,6092.912272403114,7143.020629882812,9737.014770507809,-9467.41355092902,-17553.44240288985,-4061.146786338404,-3515.293723658511,-19203.549937198037,-3249.2687827662417,-17985.293739720393
-22654.219677573758,-21057.379873175367,-2301.241222180818,4036.5520276521374,-1918.3911775287825,-18859.6625077097,-4880.7420228656965,9322.291926333775,6421.616202906558,6140.90969688014,4628.6457463314655,8843.447032727692,8632.321106760124,8471.074857209856,10331.994608828894,8728.504180908201,2831.910785875822,8289.688511898643,8786.603024131373,7759.897332442433,9346.32200943796,4923.594625372635,9453.673111765009,6091.280987388209,7141.577570061934,9735.132518567538,-9470.299670570772,-17553.12869423314,-4061.272269801089,-3520.877737747995,-19203.800904123404,-3254.852796855725,-17991.505171123303
-22652.83935948422,-21054.180044876895,-2300.864771792763,4034.3560670551497,-1919.646012155633,-18860.60363367984,-4879.361704776161,9320.974349975584,6418.981050190172,6138.525511089124,4628.771229794152,8842.192198100842,8630.43885481985,8468.753413150182,10329.986873425934,8727.500313206721,2829.965792204204,8287.931743421052,8786.54028240003,7759.332656860351,9345.945559049907,4922.904466327867,9452.481018869501,6090.841795268811,7140.3854771664255,9734.128650866058,-9472.997565018502,-17544.784043964584,-4063.154521741365,-3523.826599121093,-19202.922519884607,-3259.6839101691,-17995.83435058593
-22648.63566348427,-21050.854733115742,-2298.9197781211446,4034.3560670551497,-1919.771495618318,-18859.59976597836,-4880.679281134354,9321.288058632295,6417.663473831978,6138.21180243241,4629.775097495632,8842.882357145609,8630.627080013877,8467.937770642731,10330.049615157275,8728.69240610223,2829.7775670101764,8287.492551301653,8788.673501265675,7760.462008024515,9346.886685020045,4923.406400178607,9453.233919645609,6091.657437776264,7140.3854771664255,9734.630584716797,-9472.68385636179,-17529.161352860297,-4064.0956477115024,-3521.50515506142,-19199.09527427272,-3254.413604736328,-17994.70499942177
-22645.8750273052,-21050.541024459035,-2296.723817524157,4034.795259174547,-1919.3323034989205,-18859.725249441042,-4884.192818089536,9322.54289325915,6418.039924220035,6139.215670133891,4631.155415585166,8844.6391256232,8631.568205984015,8468.439704493472,10331.555416709496,8731.327558818615,2830.969659905684,8288.119968615078,8791.308653982062,7762.532485158819,9347.953294452867,4924.786718268143,9455.116171585885,6093.414206253854,7142.142245644017,9736.2618697317,-9472.11918077971,-17518.49525853207,-4063.4682303980767,-3517.301459061472,-19190.813365735503,-3241.175099423057,-17988.43082628752
-22645.812285573855,-21052.73698505602,-2295.6572080913343,4035.4854182193144,-1919.2695617675777,-18860.98008406789,-4883.81636770148,9324.36240346808,6419.482984040912,6140.031312641344,4633.727826570209,8847.211536608243,8632.132881566096,8469.63179738898,10333.374926918428,8734.088194997687,2833.1028787713294,8289.37480324193,8793.692839773077,7765.355863069232,9349.333612542403,4926.919937133788,9456.810198332132,6096.174842432924,7145.404815673827,9738.457830328689,-9473.123048481188,-17520.00106008429,-4062.401620965255,-3514.666306345086,-19183.849033556486,-3229.5678791246914,-17980.776335063732
-22646.62792808131,-21054.05456141421,-2295.155274240594,4037.61863708496,-1918.83036964818,-18861.231050993265,-4875.34623397024,9326.997556184464,6421.239752518502,6140.345021298057,4637.49233045076,8850.16039798134,8632.823040610865,8470.510181627775,10335.068953664679,8736.597864251387,2835.1106141742903,8290.88060479415,8796.01428383275,7768.430207905014,9351.52957313939,4928.802189074064,9458.065032958983,6098.747253417968,7148.604643972296,9740.967499582388,-9472.997565018502,-17529.035869397612,-4061.146786338404,-3513.097763061523,-19185.041126451997,-3223.921123303865,-17975.380546168275
-22647.506312320103,-21052.611501593332,-2294.4651151958265,4040.3165315326887,-1916.7598925138768,-18860.41540848581,-4864.4919144479845,9330.197384482935,6422.93377926475,6140.90969688014,4640.4411918238575,8852.983775891753,8634.140616969058,8470.63566509046,10336.198304828844,8739.233016967772,2836.302707069798,8292.072697689657,8798.71217828048,7770.8143936960305,9354.164725855777,4929.617831581517,9459.131642391809,6100.253054970189,7150.988829763312,9742.849751522666,-9470.048703645405,-17538.88632121839,-4060.3938855622946,-3511.968411897358,-19192.19368382504,-3225.238699662057,-17973.31006903397
-22648.321954827556,-21050.352799265005,-2295.594466359992,4041.885074816252,-1914.626673648232,-18860.101699829094,-4859.660801134611,9332.707053736636,6423.937646966231,6141.41163073088,4641.131350868625,8854.803286100689,8634.95625947651,8469.820022583008,10336.449271754214,8741.491719296102,2836.553673995168,8291.821730764288,8800.908138877465,7772.131970054224,9355.858752602024,4928.927672536749,9459.445351048518,6100.880472283614,7152.118180927477,9743.288943642065,-9466.47242495888,-17546.91726283023,-4060.833077681692,-3511.8429284346726,-19197.21302233244,-3232.8931908858444,-17974.627645392164
-22648.25921309621,-21049.537156757557,-2299.2334867778577,4042.575233861019,-1913.685547678094,-18860.16444156044,-4860.413701910721,9333.773663169459,6423.8749052348885,6141.662597656249,4640.127483167145,8855.744412070826,8634.642550819797,8468.941638344211,10336.261046560187,8742.495586997584,2835.988998413085,8290.566896137438,8801.786523116261,7772.6339039049635,9355.733269139337,4927.484612715871,9459.068900660464,6101.005955746299,7151.616247076737,9742.849751522666,-9464.590173018605,-17553.567886352535,-4061.5232367264593,-3512.407604016756,-19196.397379824983,-3243.1200930946748,-17978.392149272717
-22647.129861932048,-21050.03909060829,-2301.0529969867903,4042.9516842490734,-1913.6228059467517,-18860.101699829094,-4862.672404239052,9333.459954512744,6422.808295802066,6141.537114193565,4638.747165077611,8855.932637264854,8633.638683118317,8468.251479299443,10336.198304828844,8741.9309114155,2834.232229935495,8288.998352853874,8801.28458926552,7772.320195248251,9353.913758930406,4926.041552894993,9458.315999884351,6100.127571507504,7149.483028211091,9741.908625552527,-9464.903881675318,-17558.587224859937,-4062.150654039885,-3513.725180374948,-19192.444650750407,-3252.656836258737,-17982.344878347296
-22644.62019267835,-21050.541024459035,-2297.602201762952,4043.07716771176,-1914.626673648232,-18860.41540848581,-4865.558523880807,9332.581570273953,6421.427977712529,6140.784213417454,4637.9315225701575,8855.493445145454,8632.44659022281,8468.000512374074,10336.1355630975,8740.425109863278,2832.5382031892473,8287.618034764337,8799.527820787931,7771.253585815427,9351.341347945363,4924.786718268143,9457.312132182871,6098.0570943732,7147.098842420075,9740.465565731649,-9466.221458033511,-17558.524483128596,-4062.4643626965967,-3515.795657509251,-19189.621272839995,-3259.746651900441,-17984.791805869652
-22641.16939745451,-21050.164574070976,-2291.3280286287004,4043.202651174444,-1915.881508275082,-18860.98008406789,-4871.017054507606,9332.707053736636,6421.17701078716,6139.905829178659,4638.307972958213,8855.054253026057,8631.819172909385,8467.749545448702,10335.696370978105,8739.295758699114,2832.287236263877,8287.053359182257,8797.896535773025,7770.061492919922,9349.459096005088,4923.845592298006,9456.182781018708,6096.363067626952,7146.157716449938,9738.520572060032,-9466.47242495888,-17547.73290533768,-4060.644852487664,-3516.987750404759,-19188.49192167583,-3259.558426706414,-17984.98003106368
-22639.224403782893,-21050.101832339635,-2286.9361074347244,4043.6418432938417,-1916.32070039448,-18861.105567530576,-4879.361704776161,9334.02463009483,6421.804428100585,6139.529378790604,4639.625549316404,8854.991511294713,8631.94465637207,8466.933902941251,10334.943470201992,8739.797692549855,2832.726428383274,8287.36706783897,8797.896535773025,7769.622300800524,9349.145387348375,4923.531883641293,9455.618105436626,6096.363067626952,7146.8478754947055,9737.516704358552,-9464.903881675318,-17527.781034770764,-4056.754865144428,-3515.7329157779086,-19186.609669735557,-3250.021683542352,-17982.28213661595
-22640.228271484368,-21051.04295830977,-2285.3048224198187,4044.58296926398,-1916.383442125822,-18860.729117142524,-4886.137811761153,9335.153981258994,6421.804428100585,6139.905829178659,4641.131350868625,8855.36796168277,8632.383848491465,8466.306485627825,10334.817986739308,8741.115268908048,2832.85191184596,8287.994485152394,8799.02588693719,7770.688910233345,9350.337480243883,4924.284784417402,9455.74358889931,6098.0570943732,7148.22819358424,9738.583313791374,-9462.205987227588,-17511.53092635305,-4053.1158447265616,-3512.4703457480978,-19182.46871546695,-3236.9714034231083,-17976.823605989153
-22641.67133130525,-21051.356666966487,-2284.3009547183387,4046.465221204255,-1916.132475200452,-18859.976216366416,-4888.020063701429,9335.84414030376,6421.992653294613,6141.348888999537,4642.950861077559,8856.37182938425,8633.324974461602,8467.68680371736,10335.696370978105,8742.558328728926,2833.228362234015,8289.312061510587,8800.406205026724,7772.947612561677,9352.345215646843,4926.418003283048,9456.810198332132,6100.504021895558,7150.110445524516,9741.03024131373,-9459.445351048518,-17508.26835632324,-4050.0414998907786,-3509.082292255602,-19177.449376959543,-3225.80337524414,-17970.361207660873
-22642.361490350017,-21051.293925235143,-2284.112729524311,4047.782797562448,-1915.9442500064245,-18860.03895809776,-4886.953454268605,9335.906882035106,6422.996520996093,6142.352756701017,4644.456662629779,8857.124730160362,8634.517067357112,8470.070989508376,10336.072821366159,8743.373971236377,2833.9185212787825,8290.566896137438,8801.03362234015,7774.51615584524,9353.913758930406,4928.425738686009,9457.625840839586,6102.009823447779,7151.678988808079,9742.849751522666,-9457.876807764957,-17514.918979845548,-4048.912148726613,-3508.956808792917,-19176.63373445209,-3222.164354826274,-17967.663313213146
-22643.86729190224,-21052.67424332468,-2286.0577231959287,4047.594572368421,-1916.0069917377673,-18861.60750138132,-4884.130076358192,9335.153981258994,6423.937646966231,6141.976306312961,4644.142953973067,8856.873763234991,8635.269968133223,8471.576791060597,10335.13169539602,8742.809295654295,2834.2949716668377,8290.943346525493,8800.02975463867,7773.76325506913,9353.976500661747,4928.802189074064,9457.374873914216,6101.633373059723,7151.867214002105,9742.724268059981,-9458.880675466435,-17522.949921457388,-4051.2335927862864,-3513.348729986893,-19182.845165855004,-3227.7483689157584,-17972.368943063833
-22646.502444618625,-21054.870203921662,-2290.198677464535,4046.967155054996,-1916.0069917377673,-18863.30152812757,-4880.616539403011,9334.338338751539,6424.3768390856285,6141.41163073088,4642.888119346217,8855.932637264854,8636.148352372018,8471.827757985966,10333.939602500512,8741.491719296102,2834.2949716668377,8291.006088256836,8798.21024442974,7771.692777934825,9353.474566811008,4928.1747717606395,9456.49648967542,6100.315796701531,7150.361412449886,9741.03024131373,-9461.892278570876,-17529.851511905064,-4053.2413281892473,-3518.870002345034,-19191.50352478027,-3233.3323830052423,-17980.399884675677
-22648.196471364878,-21055.748588160463,-2295.594466359992,4046.7161881296256,-1915.6932830810545,-18863.61523678428,-4879.298963044817,9333.648179706772,6424.314097354286,6141.850822850277,4642.009735107421,8854.615060906659,8636.901253148126,8471.325824135225,10333.814119037828,8740.299626400596,2833.9185212787825,8291.006088256836,8796.892668071545,7769.998751188577,9353.411825079664,4927.672837909899,9456.308264481391,6099.060962074681,7148.479160509611,9739.649923224195,-9464.65291474995,-17536.62761889006,-4052.864877801192,-3520.689512553968,-19196.77383021304,-3234.712701094777,-17985.105514526364
-22647.192603663392,-21054.05456141421,-2299.0452615838294,4046.8416715923104,-1914.5011901855464,-18862.234918694743,-4877.040260716488,9332.958020662003,6424.063130428915,6143.356624402497,4640.943125674598,8853.548451473838,8637.089478342155,8471.70227452328,10335.821854440788,8739.107533505088,2834.044004741468,8291.758989032945,8796.139767295435,7769.685042531865,9353.976500661747,4928.112030029296,9457.437615645558,6098.747253417968,7147.914484927528,9740.026373612252,-9465.092106869346,-17538.88632121839,-4053.2413281892473,-3517.677909449527,-19198.342373496605,-3237.4733372738483,-17985.544706645764
-22643.93003363358,-21051.10570004112,-2298.229619076377,4046.967155054996,-1913.0581303646688,-18860.289925023128,-4869.448511224044,9332.267861617236,6423.623938309518,6144.987909417402,4639.625549316404,8852.921034160412,8636.901253148126,8473.396301269531,10338.958941007912,8737.852698878236,2834.7969055175777,8293.202048853822,8795.700575176037,7770.124234651263,9354.729401437857,4929.241381193462,9459.445351048518,6099.562895925421,7148.604643972296,9741.657658627159,-9463.586305317123,-17532.73763154682,-4054.370679353413,-3513.285988255551,-19198.091406571235,-3243.057351363332,-17985.356481451734
-22640.291013215716,-21048.65877251876,-2294.8415655838808,4045.7123204281447,-1912.9953886333265,-18859.6625077097,-4861.103860955489,9331.201252184415,6422.808295802066,6145.2388763427725,4638.747165077611,8851.979908190273,8636.085610640675,8474.776619359065,10340.778451216847,8736.723347714073,2835.298839368318,8294.080433092618,8795.57509171335,7770.563426770661,9355.294077019942,4930.245248894942,9460.825669138052,6100.378538432874,7149.545769942433,9742.849751522666,-9462.26872895893,-17521.255894711143,-4053.8060037713294,-3510.8390607331926,-19196.64834675036,-3246.382663124485,-17985.544706645764
-22638.220536081408,-21047.717646548615,-2293.335764031661,4041.6341078908818,-1915.3795744243416,-18861.60750138132,-4860.037251522665,9328.691582930715,6420.800560399105,6143.231140939813,4637.743297376131,8849.658464130602,8634.015133506371,8473.89823512027,10340.15103390342,8735.405771355878,2834.6086803235503,8293.076565391139,8794.947674399926,7769.496817337838,9354.478434512488,4929.994281969572,9460.574702212685,6099.751121119449,7149.232061285721,9742.347817671924,-9462.582437615645,-17513.97785387541,-4052.6766526071647,-3509.835193031712,-19193.699485377256,-3242.9318679006474,-17982.909553929378
-22638.095052618726,-21048.21958039936,-2295.8454332853617,4036.175577264082,-1918.893111379523,-18864.87007141113,-4866.876100239,9325.742721557615,6417.537990369294,6140.219537835372,4636.551204480623,8846.39589410079,8631.254497327302,8470.949373747173,10337.766848112404,8733.837228072316,2832.726428383274,8290.88060479415,8793.818323235762,7766.9871480841375,9352.156990452817,4928.613963880037,9459.445351048518,6098.182577835885,7147.914484927528,9740.904757851047,-9465.092106869346,-17515.860105815686,-4052.4256856817938,-3508.5176166735196,-19188.680146869858,-3233.3323830052423,-17976.447155601098
-22638.97343685752,-21051.168441772457,-2299.986387553968,4031.281722219366,-1922.5948735287316,-18867.818932784234,-4875.7854260896365,9322.982085378544,6414.212678608141,6137.584385118986,4635.359111585114,8843.321549265009,8628.7448280736,8467.498578523333,10334.817986739308,8731.954976132041,2830.154017398232,8288.747385928502,8792.249779952199,7764.351995367752,9349.396354273744,4927.233645790501,9457.876807764957,6096.30032589561,7146.283199912623,9739.649923224195,-9469.92322018272,-17522.887179726047,-4053.7432620399873,-3507.7647158974087,-19184.476450869908,-3224.172090229235,-17969.60830688476
-22640.16552975303,-21055.372137772407,-2301.5549308375307,4029.273986816406,-1925.104542782432,-18869.32473433645,-4881.181214985094,9321.09983343827,6412.769618787263,6136.141325298108,4634.2925021522915,8841.878489444129,8626.925317864669,8465.616326583058,10332.935734799032,8730.762883236534,2828.3345071892986,8287.492551301653,8791.057687056691,7763.222644203587,9347.827810990182,4927.233645790501,9456.433747944078,6095.233716462787,7145.530299136512,9739.2107311048,-9472.370147705074,-17529.851511905064,-4055.876480905633,-3507.8901993600944,-19185.982252422127,-3221.4741957815068,-17966.47122031764
-22641.734073036598,-21057.25438971268,-2298.0413938823494,4031.846397801449,-1924.4771254690068,-18868.38360836631,-4881.118473253751,9321.60176728901,6413.773486488744,6136.329550492135,4633.727826570209,8843.13332407098,8626.862576133326,8465.804551777086,10333.186701724402,8731.327558818615,2828.397248920641,8287.36706783897,8791.24591225072,7763.787319785669,9347.953294452867,4928.300255223324,9456.182781018708,6095.672908582184,7145.593040867855,9739.524439761512,-9468.229193436471,-17532.73763154682,-4056.5666399504,-3507.137298583984,-19191.629008242955,-3225.175957930715,-17968.72992264597
-22642.549715544046,-21054.180044876895,-2290.261419195878,4037.4304118909326,-1920.1479460063729,-18865.43474699321,-4876.914777253803,9325.36627116956,6416.283155742444,6138.46276935778,4635.421853316458,8846.83508622019,8629.184020192999,8467.749545448702,10335.759112709444,8734.088194997687,2830.342242592259,8288.872869391189,8793.630098041735,7766.108763845343,9349.710062930457,4929.931540238229,9458.127774690323,6097.743385716488,7146.659650300678,9740.779274388362,-9460.0100266306,-17529.537803248353,-4054.1824541593846,-3503.623761628803,-19194.828836541423,-3230.5717468261714,-17973.31006903397
-22641.85955649928,-21047.529421354597,-2282.732411434776,4042.575233861019,-1914.626673648232,-18862.485885620117,-4871.456246627004,9330.57383487099,6418.792824996144,6141.286147268193,4639.500065853721,8851.227007414165,8632.634815416837,8470.6984068218,10339.900066978053,8737.601731952867,2832.9146535773025,8291.570763838918,8797.143634996915,7769.245850412469,9352.78440776624,4931.688308715819,9461.578569914163,6100.315796701531,7148.541902240952,9742.975234985348,-9453.233919645609,-17524.079272621555,-4050.166983353464,-3499.6710325542244,-19194.26416095934,-3234.77544282612,-17976.572639063783
-22641.294880917198,-21042.19637419048,-2282.7951531661183,4045.775062159488,-1911.4268453497637,-18861.293792724606,-4866.185941194232,9334.589305676913,6420.424110011049,6142.980174014441,4643.201828002929,8854.426835712633,8635.144484670538,8472.517917030735,10343.162637007861,8740.299626400596,2834.985130711605,8293.578499241878,8799.590562519274,7771.692777934825,9355.043110094573,4932.629434685958,9463.96275570518,6101.821598253751,7150.047703793173,9744.794745194285,-9451.916343287416,-17523.891047427525,-4048.159247950504,-3499.4200656288544,-19193.385776720548,-3239.4183309454666,-17978.831341392113
-22642.549715544046,-21041.56895687705,-2291.390770360043,4046.5279629355978,-1912.744421707956,-18863.364269858914,-4862.609662507709,9335.718656841074,6420.5495934737355,6142.039048044305,4644.142953973067,8855.61892860814,8635.458193327251,8471.70227452328,10342.34699450041,8741.303494102076,2835.6125480250307,8292.762856734425,8799.151370399875,7771.943744860195,9354.603917975171,4931.43734179045,9462.896146272355,6100.880472283614,7149.859478599145,9744.355553074884,-9456.308264481391,-17530.541670949835,-4050.1042416221208,-3504.439404136256,-19194.76609481008,-3246.508146587171,-17982.344878347296
-22645.498576917144,-21044.957010369548,-2298.29236080772,4044.7711944580074,-1917.32456809596,-18868.007157978256,-4865.182073492752,9334.212855288855,6418.541858070776,6138.21180243241,4641.946993376079,8854.11312705592,8633.324974461602,8468.12599583676,10337.013947336296,8739.860434281196,2833.8557795474403,8288.872869391189,8795.637833444694,7769.30859214381,9351.02763928865,4927.5473544472125,9458.25325815301,6097.115968403064,7146.973358957392,9740.716532657021,-9462.64517934699,-17537.631486591537,-4054.496162816097,-3512.1566370913847,-19195.89544597425,-3253.158770109477,-17985.795673571134
-22648.761146946956,-21049.850865414264,-2296.535592330129,4041.8223330849087,-1921.967456215306,-18872.6500460976,-4874.2796245374175,9331.640444303812,6416.032188817074,6133.69439777575,4638.935390271638,8851.164265682823,8630.376113088505,8464.17326676218,10331.36719151547,8737.288023296154,2831.2206268310542,8284.669173391241,8792.061554758171,7765.857796919971,9346.76120155736,4923.594625372635,9453.233919645609,6093.037755865799,7143.397080270867,9736.638320119757,-9466.535166690222,-17540.14115584524,-4058.260666696649,-3516.360333091334,-19193.57400191457,-3254.099896079615,-17984.101646824885
-22652.14920043945,-21054.11730314556,-2291.5789955540704,4038.9362134431535,-1924.8535758570615,-18876.414549978155,-4884.5692684775895,9329.319000244137,6414.902837652909,6130.9965033280205,4637.304105256732,8849.031046817174,8628.242894222862,8462.040047896535,10328.66929706774,8735.217546161852,2829.463858353464,8282.598696256937,8790.80672013132,7763.912803248353,9344.565240960372,4922.026082089073,9450.410541735197,6091.155503925524,7141.891278718646,9734.818809910823,-9466.409683227535,-17536.753102352744,-4060.0174351742394,-3515.2309819271686,-19190.123206690732,-3248.4531402587886,-17977.074572914524
-22655.4745122006,-21057.066164518652,-2289.82222707648,4037.4931536222753,-1926.108410483912,-18878.924219231856,-4891.596342387952,9328.189649079972,6415.028321115594,6130.243602551911,4638.1197477641845,8848.717338160464,8627.74096037212,8461.72633923982,10328.355588411028,8734.590128848426,2829.0246662340664,8282.535954525596,8791.685104370115,7763.912803248353,9344.941691348424,4922.277049014441,9449.845866153111,6091.657437776264,7142.644179494757,9734.944293373506,-9464.276464361892,-17529.349578054327,-4060.0174351742394,-3513.536955180921,-19189.244822451936,-3237.536079005191,-17970.423949392218
-22656.54112163343,-21059.13664165296,-2291.0770617033304,4038.497021323756,-1925.857443558542,-18878.798735769167,-4893.541336059569,9328.754324662055,6415.592996697676,6130.871019865336,4640.378450092516,8849.84668932463,8628.870311536286,8462.667465209961,10329.42219784385,8735.656738281248,2829.5893418161486,8283.728047421104,8793.692839773077,7765.167637875204,9346.510234631987,4923.594625372635,9451.414409436675,6093.665173179224,7144.400947972347,9736.2618697317,-9464.464689555922,-17526.024266293174,-4058.637117084704,-3513.662438643605,-19192.130942093692,-3226.493534288908,-17968.918147839995
-22654.28241930509,-21060.516959742494,-2292.457379792865,4039.500889025236,-1924.8535758570615,-18877.041967291578,-4892.474726626747,9329.38174197548,6416.157672279759,6132.314079686214,4641.633284719366,8851.227007414165,8630.627080013877,8464.110525030837,10331.241708052785,8736.848831176756,2830.279500860917,8285.17110724198,8795.386866519324,7766.547955964739,9347.890552721523,4925.351393850226,9454.112303884403,6095.610166850843,7145.906749524567,9738.081379940637,-9468.166451705129,-17530.102478830435,-4057.382282457853,-3514.289855957031,-19198.405115227946,-3222.979997333727,-17972.808135183233
-22651.333557932,-21061.45808571263,-2291.9554459421256,4038.0578292043583,-1924.2261585436368,-18875.91261612741,-4892.600210089432,9328.189649079972,6416.094930548416,6133.380689119037,4640.817642211913,8850.85055702611,8631.003530401931,8464.988909269636,10332.37105921695,8736.158672131989,2830.154017398232,8285.610299361377,8795.198641325298,7766.485214233397,9348.455228303606,4926.292519820362,9455.555363705284,6095.672908582184,7145.655782599198,9739.02250591077,-9471.366280003596,-17539.13728814376,-4058.1351832339633,-3514.289855957031,-19204.553804899515,-3226.995468139648,-17978.26666581003
-22649.63953118575,-21062.524695145454,-2290.512386121248,4035.10896783126,-1924.5398672003491,-18875.34794054533,-4892.223759701376,9326.119171945673,6415.530254966334,6133.94536470112,4638.558939883583,8848.529112966435,8630.062404431794,8465.051651000977,10332.433800948293,8734.71561231111,2829.2756331594364,8285.673041092721,8793.630098041735,7764.853929218493,9348.392486572266,4925.853327700966,9455.367138511256,6094.606299149362,7143.96175585295,9738.771538985402,-9471.052571346883,-17551.68563441226,-4060.331143830952,-3515.2309819271686,-19203.612678929378,-3232.6422239604744,-17982.846812198033
-22648.196471364878,-21062.1482447574,-2290.32416092722,4033.226715890984,-1924.3516420063215,-18873.90488072445,-4886.57700388055,9325.429012900904,6415.655738429019,6135.4511662533405,4636.6139462119645,8846.521377563473,8630.062404431794,8465.553584851716,10332.998476530374,8734.71561231111,2829.0874079654086,8287.116100913598,8792.877197265623,7763.787319785669,9348.894420423005,4925.351393850226,9456.057297556023,6094.355332223992,7143.146113345497,9738.771538985402,-9470.174187108089,-17559.779317755445,-4062.213395771227,-3517.301459061472,-19196.96205540707,-3237.787045930561,-17986.73679954127
-22646.62792808131,-21059.826800697727,-2292.018187673468,4033.0384906969566,-1923.661482961554,-18872.52456263492,-4878.295095343337,9325.742721557615,6416.408639205129,6137.20793473093,4635.73556197317,8846.270410638106,8631.19175559596,8466.68293601588,10334.316052888567,8735.71948001259,2830.0912756668886,8289.500286704615,8793.567356310392,7764.226511905067,9350.211996781196,4925.790585969623,9457.939549496301,6095.108233000102,7143.836272390265,9739.71266495554,-9472.432889436419,-17555.82658868087,-4063.9074225174745,-3518.681777151007,-19192.444650750407,-3242.429934049907,-17990.25033649645
-22646.37696115594,-21058.13277395148,-2294.9670490465664,4033.226715890984,-1923.410516036184,-18873.089238217,-4873.58946549265,9325.429012900904,6416.659606130499,6137.647126850328,4635.547336779142,8846.83508622019,8631.568205984015,8467.37309506065,10334.943470201992,8735.970446937961,2831.2206268310542,8290.88060479415,8794.822190937242,7765.606829994602,9351.153122751335,4926.919937133788,9459.382609317176,6095.79839204487,7145.279332211142,9740.465565731649,-9475.381750809518,-17542.5880833676,-4065.2877406070097,-3519.309194464432,-19190.938849198188,-3242.555417512592,-17991.567912854644
-22648.07098790219,-21058.195515682815,-2297.602201762952,4033.289457622327,-1923.2222908421563,-18874.53229803788,-4872.962048179224,9324.61337039345,6416.408639205129,6137.333418193616,4636.1120123612245,8847.5879869963,8631.44272252133,8467.68680371736,10334.504278082595,8735.782221743933,2831.910785875822,8290.88060479415,8796.51621768349,7767.489081934877,9351.655056602076,4928.112030029296,9460.0100266306,6096.802259746351,7147.098842420075,9740.842016119705,-9476.19739331697,-17527.341842651364,-4065.162257144325,-3519.6229031211446,-19188.05272955643,-3236.9086616917657,-17988.74453494423
-22650.831624081256,-21059.387608578327,-2299.2962285092,4032.913007234272,-1922.908582185444,-18874.59503976922,-4874.718816656815,9323.797727885998,6415.843963623046,6137.145192999588,4636.99039660002,8847.713470458983,8631.568205984015,8467.310353329307,10333.87686076917,8736.158672131989,2831.785302413137,8290.441412674752,8798.084760967053,7768.869400024413,9352.2824739155,4928.488480417352,9460.135510093289,6098.182577835885,7148.290935315583,9740.842016119705,-9475.758201197572,-17518.118808144016,-4063.656455592105,-3519.2464527330894,-19182.594198929637,-3230.132554706774,-17983.536971242804
-22654.28241930509,-21061.709052638,-2300.7392883300777,4032.285589920847,-1923.410516036184,-18874.030364187136,-4878.985254388105,9322.982085378544,6414.840095921566,6136.95696780556,4636.73942967465,8846.709602757503,8631.254497327302,8465.867293508429,10332.998476530374,8736.095930400646,2830.7186929803142,8289.625770167298,8797.520085384971,7768.116499248303,9351.906023527446,4927.421870984529,9459.068900660464,6098.30806129857,7147.7262597335,9739.963631880908,-9475.19352561549,-17521.44411990517,-4061.836945383172,-3517.9916181062395,-19177.637602153576,-3223.79563984118,-17979.145050048824
-22656.980313752825,-21064.971622667814,-2302.4960568076685,4032.348331652189,-1924.3516420063215,-18873.77939726177,-4883.000725194026,9322.793860184518,6414.526387264853,6136.831484342875,4635.359111585114,8845.768476787365,8630.43885481985,8464.612458881578,10331.994608828894,8735.405771355878,2830.154017398232,8289.123836316558,8795.449608250665,7766.29698903937,9350.651188900596,4926.1670363576795,9457.312132182871,6097.429677059776,7146.785133763362,9739.336214567486,-9474.817075227433,-17536.94132754677,-4059.7037265175263,-3516.360333091334,-19177.135668302835,-3219.3409769158607,-17979.019566586143
-22657.35676414088,-21068.17145096628,-2303.3116993151207,4033.226715890984,-1925.104542782432,-18873.77939726177,-4883.000725194026,9323.295794035259,6414.840095921566,6136.7687426115335,4633.602343107525,8845.454768130652,8629.497728849712,8464.67520061292,10331.61815844084,8734.276420191714,2830.467726054944,8288.872869391189,8793.50461457905,7765.104896143863,9350.149255049855,4925.916069432308,9456.057297556023,6096.55129282098,7146.534166837992,9739.649923224195,-9475.130783884148,-17559.214642173363,-4057.1313155324833,-3515.419207121196,-19182.90790758635,-3220.7212950053963,-17982.846812198033
-22655.599995663288,-21069.802735981182,-2302.0568646882707,4034.293325323807,-1925.2927679764596,-18873.46568860505,-4880.992989791065,9324.048694811368,6415.091062846936,6136.894226074218,4632.159283286646,8845.705735056023,8628.933053267629,8465.6790683144,10332.62202614232,8733.272552490233,2831.157885099712,8288.62190246582,8792.312521683541,7764.351995367752,9350.337480243883,4926.355261551706,9455.806330630652,6095.923875507555,7146.283199912623,9739.900890149567,-9475.130783884148,-17578.915545814914,-4056.06470609966,-3514.917273270456,-19190.876107466847,-3228.2503027664984,-17984.791805869652
-22652.58839255885,-21068.673384817022,-2299.4217119718846,4034.8580009058896,-1924.100675080952,-18872.712787828943,-4879.675413432874,9324.738853856135,6414.840095921566,6137.145192999588,4631.406382510536,8846.458635832134,8629.121278461656,8466.871161209907,10333.939602500512,8732.833360370836,2831.4715937564247,8288.62190246582,8791.685104370115,7763.724578054326,9350.149255049855,4926.731711939761,9456.433747944078,6095.735650313527,7145.655782599198,9739.71266495554,-9473.813207525953,-17584.436818173057,-4058.5743753533607,-3514.8545315391134,-19197.526730989157,-3239.732039602179,-17984.854547600997
-22650.517915424545,-21065.850006906607,-2297.1630096435542,4034.6697757118623,-1922.4693900660463,-18872.461820903576,-4879.863638626901,9324.61337039345,6414.149936876798,6136.392292223478,4631.218157316509,8846.521377563473,8628.995794998971,8467.059386403937,10334.065085963199,8732.645135176808,2830.467726054944,8288.245452077763,8790.869461862663,7763.097160740903,9349.396354273744,4926.104294626336,9456.872940063473,6095.484683388157,7144.651914897717,9739.461698030169,-9473.060306749843,-17573.896207307513,-4063.405488666735,-3516.8622669420743,-19202.922519884607,-3250.5863591244342,-17987.67792551141
-22650.07872330515,-21063.340337652902,-2296.1591419420743,4034.167841861122,-1921.5910058272511,-18873.46568860505,-4881.934115761204,9324.048694811368,6413.898969951429,6135.137457596627,4631.029932122481,8845.831218518708,8628.242894222862,8466.306485627825,10333.437668649773,8732.45690998278,2829.212891428094,8287.36706783897,8790.304786280582,7762.720710352846,9349.01990388569,4924.786718268143,9456.998423526162,6094.9827495374175,7144.087239315633,9739.587181492854,-9473.687724063268,-17556.077555606236,-4066.793542159231,-3520.5640290912825,-19206.05960645173,-3255.417472437808,-17991.379687660617
-22649.702272917093,-21061.45808571263,-2296.0336584793886,4034.4815505178344,-1921.3400389018807,-18875.222457082647,-4885.57313617907,9324.801595587478,6414.714612458881,6135.262941059313,4631.406382510536,8845.580251593337,8628.368377685545,8466.055518702457,10333.6258938438,8732.958843833521,2829.4011166221208,8287.178842644942,8790.994945325347,7763.473611128957,9349.521837736433,4924.096559223375,9457.814066033614,6094.79452434339,7144.46368970369,9740.277340537623,-9473.562240600584,-17539.388255069127,-4066.605316965203,-3523.0109566136407,-19205.871381257708,-3251.966677213969,-17992.44629709344
-22649.514047723063,-21059.387608578327,-2296.096400210732,4035.9873520700553,-1921.5910058272511,-18876.791000366207,-4889.023931402909,9326.872072721782,6415.781221891703,6136.580517417506,4633.288634450812,8847.148794876899,8629.874179237766,8466.871161209907,10335.006211933336,8734.590128848426,2830.593209517629,8287.994485152394,8793.25364765368,7765.669571725944,9350.52570543791,4924.912201730828,9459.382609317176,6096.112100701584,7145.781266061882,9741.406691701788,-9471.993697317022,-17527.46732611405,-4063.9701642488176,-3522.320797568873,-19203.738162392063,-3242.8691261693048,-17989.560177451684
-22650.706140618568,-21057.317131444022,-2297.727685225637,4037.4304118909326,-1922.5321317973887,-18878.045834993056,-4890.404249492444,9328.754324662055,6416.283155742444,6137.396159924958,4635.861045435855,8849.84668932463,8631.129013864616,8468.063254105416,10336.825722142268,8736.848831176756,2831.032401637027,8288.998352853874,8795.826058638722,7768.430207905014,9351.717798333417,4926.731711939761,9460.26099355597,6098.559028223941,7147.600776270815,9742.536042865951,-9470.362412302115,-17519.68735142758,-4061.2095280697463,-3519.309194464432,-19199.785433317484,-3234.085283781352,-17983.599712974144
-22651.584524857368,-21056.43874720523,-2302.1196064196133,4037.116703234221,-1923.347774304841,-18878.359543649767,-4888.208288895456,9329.507225438167,6416.534122667814,6137.647126850328,4637.806039107473,8851.91716645893,8631.568205984015,8468.941638344211,10337.766848112404,8739.044791773746,2831.157885099712,8290.064962286697,8797.77105231034,7770.500685039318,9352.407957378184,4928.425738686009,9460.198251824628,6100.9432140149565,7149.796736867804,9743.72813576146,-9469.672253257348,-17515.54639715897,-4058.950825741416,-3516.109366165964,-19194.201419228,-3229.379653930664,-17976.886347720494
-22651.45904139468,-21058.38374087685,-2307.2644283897,4035.422676487972,-1923.661482961554,-18878.045834993056,-4883.81636770148,9328.942549856085,6416.534122667814,6137.2706764622735,4638.2452312268715,8852.35635857833,8631.317239058642,8468.753413150182,10336.386530022872,8739.546725624483,2830.969659905684,8290.253187480723,8798.335727892423,7770.688910233345,9351.968765258787,4929.17863946212,9459.633576242546,6102.260790373149,7151.553505345393,9744.669261731598,-9471.115313078228,-17521.569603367854,-4059.139050935444,-3515.2309819271686,-19192.695617675778,-3230.383521632144,-17973.121843839945
-22651.39629966334,-21062.085503026057,-2307.5781370464124,4034.795259174547,-1923.9751916182668,-18877.418417679637,-4881.118473253751,9327.938682154607,6415.530254966334,6136.141325298108,4636.927654868678,8851.540716070876,8630.313371357164,8467.435836791992,10333.814119037828,8738.480116191662,2830.0285339355464,8289.312061510587,8798.084760967053,7769.245850412469,9350.839414094622,4928.551222148694,9458.692450272409,6101.884339985094,7152.055439196134,9744.481036537569,-9474.503366570723,-17540.768573158664,-4062.401620965255,-3517.3642007928142,-19197.150280601098,-3236.0930191843127,-17975.5687713623
-22649.32582252904,-21064.40694708573,-2299.2962285092,4035.799126876027,-1924.0379333496087,-18876.10084132144,-4881.620407104491,9327.687715229233,6414.463645533511,6135.95310010408,4635.98652889854,8850.913298757452,8629.811437506421,8466.243743896483,10332.433800948293,8738.040924072262,2829.5266000848064,8288.747385928502,8798.02201923571,7768.241982710989,9350.588447169252,4927.296387521844,9458.00229122764,6100.504021895558,7151.1770549573375,9743.288943642065,-9476.824810630396,-17560.34399333753,-4065.2877406070097,-3519.1837110017473,-19202.67155295924,-3240.4221986469465,-17981.842944496555
-22644.43196748432,-21065.348073055862,-2287.3125578227796,4037.116703234221,-1923.661482961554,-18874.783264963247,-4884.82023540296,9327.938682154607,6414.777354190223,6137.019709536903,4636.48846274928,8850.725073563424,8629.560470581055,8465.992776971116,10331.994608828894,8738.354632728977,2830.2167591295743,8288.62190246582,8797.520085384971,7768.30472444233,9350.902155825965,4926.418003283048,9457.061165257503,6099.186445537366,7149.922220330489,9741.7204003585,-9478.079645257247,-17566.61816647178,-4064.723065024928,-3521.00322121068,-19206.749765496505,-3240.2967151842618,-17987.42695858604
-22639.475370708264,-21065.097106130495,-2279.783550061677,4038.9362134431535,-1922.5948735287316,-18873.653913799084,-4887.643613313373,9328.754324662055,6416.471380936471,6138.40002762644,4638.307972958213,8851.289749145508,8630.125146163136,8466.68293601588,10331.492674978155,8738.982050042403,2831.597077219109,8288.747385928502,8797.582827116314,7769.30859214381,9351.655056602076,4926.418003283048,9456.057297556023,6098.935478611996,7149.483028211091,9740.779274388362,-9479.334479884095,-17561.473344501694,-4061.0840446070615,-3524.579499897204,-19210.38878591437,-3238.163496318616,-17991.630654585988
-22635.96183375308,-21061.45808571263,-2280.285483912417,4040.9439488461135,-1921.0890719765107,-18872.712787828943,-4887.204421193976,9330.00915928891,6418.228149414062,6139.654862253289,4640.566675286544,8852.293616846988,8631.693689446702,8468.000512374074,10331.1162245901,8740.17414293791,2832.85191184596,8289.37480324193,8798.900403474505,7770.626168502004,9352.972632960269,4926.668970208419,9456.182781018708,6099.186445537366,7149.545769942433,9740.904757851047,-9478.016903525904,-17553.94433674059,-4056.8176068757703,-3526.7127187628494,-19213.96506460089,-3236.9086616917657,-17994.516774227744
-22634.267807006832,-21054.870203921662,-2286.1832066586135,4041.6341078908818,-1919.8342373496605,-18872.39907917223,-4883.439917313424,9330.762060065015,6418.855566727487,6140.156796104029,4641.319576062654,8852.607325503699,8632.69755714818,8469.004380075556,10331.178966321442,8740.613335057307,2833.3538456967,8289.87673709267,8799.590562519274,7770.8143936960305,9353.411825079664,4926.355261551706,9456.621973138106,6098.998220343337,7148.667385703639,9741.092983045075,-9470.67612095883,-17546.352587248148,-4053.2413281892473,-3523.889340852436,-19214.90619057103,-3234.398992438065,-17992.885489212837
-22635.020707782944,-21049.160706369497,-2291.767220748098,4040.3792732640313,-1919.0813365735503,-18872.90101302297,-4878.10687014931,9330.385609676963,6418.479116339432,6139.717603984632,4639.939257973118,8851.728941264904,8632.321106760124,8468.878896612867,10331.869125366207,8739.546725624483,2833.1028787713294,8289.813995361328,8798.837661743162,7769.8105259945505,9352.219732184158,4925.414135581568,9456.559231406765,6098.370803029913,7147.663518002158,9740.528307462992,-9460.0100266306,-17539.70196372584,-4050.2297250848064,-3517.803392912212,-19212.271037854644,-3228.438527960526,-17986.73679954127
-22637.844085693356,-21048.156838668016,-2293.837697882401,4038.183312667043,-1919.0813365735503,-18874.40681457519,-4873.526723761307,9329.193516781455,6417.412506906609,6138.588252820466,4638.2452312268715,8850.474106638054,8631.630947715357,8467.498578523333,10332.496542679635,8738.103665803606,2832.726428383274,8289.500286704615,8797.520085384971,7768.618433099044,9350.902155825965,4924.786718268143,9455.931814093336,6098.0570943732,7147.349809345445,9739.71266495554,-9454.488754272461,-17535.811976382603,-4047.8455392937913,-3513.160504792865,-19207.879116660668,-3221.160487124794,-17980.713593332388
-22641.043913991827,-21051.2311835038,-2292.394638061523,4036.8657363088505,-1919.395045230263,-18875.849874396066,-4869.887703343441,9328.126907348633,6416.345897473786,6137.7726103130135,4637.6178139134445,8849.532980667916,8632.19562329744,8466.18100216514,10333.12395999306,8737.852698878236,2832.789170114617,8289.437544973272,8796.641701146174,7767.551823666221,9350.964897557309,4925.100426924855,9456.308264481391,6098.559028223941,7147.600776270815,9739.587181492854,-9456.120039287363,-17532.23569769608,-4046.5279629355978,-3510.2743851511095,-19204.616546630852,-3213.8197045577194,-17975.50602963096
-22642.800682469417,-21054.807462190325,-2289.132068031712,4037.4931536222753,-1919.2068200362355,-18876.038099590096,-4866.12319946289,9328.00142388595,6416.596864399156,6138.086318969726,4638.1197477641845,8849.721205861944,8634.140616969058,8466.306485627825,10334.441536351253,8738.731083117033,2833.6675543534125,8290.190445749382,8796.892668071545,7767.426340203536,9352.596182572212,4926.606228477076,9458.00229122764,6099.813862850791,7148.730127434981,9740.591049194334,-9460.323735287313,-17531.169088263257,-4047.155380249023,-3508.3921332108343,-19205.808639526364,-3209.1768164383734,-17970.612174586244
-22643.42809978284,-21056.815197593285,-2286.622398778012,4039.187180368524,-1919.0813365735503,-18876.038099590096,-4865.056590030067,9328.879808124742,6418.228149414062,6138.337285895096,4638.558939883583,8851.038782220137,8635.96012717799,8467.18486986662,10335.319920590047,8739.483983893142,2834.985130711605,8290.943346525493,8797.77105231034,7768.30472444233,9354.7921431692,4928.1747717606395,9459.131642391809,6100.817730552271,7150.298670718544,9741.971367283868,-9464.02549743652,-17536.753102352744,-4050.355208547491,-3509.584226106342,-19212.020070929277,-3211.3727770353617,-17970.48669112356
-22643.239874588813,-21057.00342278731,-2286.1832066586135,4040.3792732640313,-1918.83036964818,-18877.10470902292,-4868.507385253904,9329.82093409488,6419.984917891652,6137.4589016563,4637.9942643015,8852.168133384303,8636.524802760074,8467.435836791992,10335.006211933336,8739.483983893142,2835.7380314877155,8290.566896137438,8798.21024442974,7769.120366949783,9355.858752602024,4928.488480417352,9458.629708541066,6101.068697477641,7150.863346300625,9742.536042865951,-9465.782265914113,-17543.71743453176,-4053.6177785773025,-3513.536955180921,-19219.235370033664,-3216.517599005448,-17977.074572914524
-22641.79681476793,-21055.43487950375,-2286.622398778012,4041.3203992341687,-1917.6382767526725,-18878.171318455745,-4872.648339522511,9331.013026990388,6421.616202906558,6136.894226074218,4637.868780838815,8853.422968011153,8636.587544491416,8467.624061986018,10334.692503276625,8739.483983893142,2836.741899189196,8290.190445749382,8798.398469623764,7769.74778426321,9355.921494333366,4928.488480417352,9457.876807764957,6101.131439208984,7150.361412449886,9742.22233420924,-9465.656782451428,-17547.042746292915,-4054.370679353413,-3517.3642007928142,-19225.760510093285,-3220.1566194233137,-17985.607448377104
