Fp1,Fp2,F7,F3,Fz,F4,F8,FC3,FCz,FC4,T7,C3,Cz,C4,T8,CP3,CPz,CP4,P7,P3,Pz,P4,P8,O1,Oz,O2,VPVA,VNVB,HPHL,HNHR,Erbs,OrbOcc,Mass
-1598.471089413291,-14379.840148122685,399.4766034578022,2766.659385279605,6172.657012939452,4132.672360068873,-3169.0848501105056,4166.050961143092,6978.072618183336,6517.548310129266,5587.590368170488,6503.180453651828,6301.026595266241,4780.417994449012,7630.523882414163,4656.94226716694,5669.719294497841,5351.681458322625,-18028.585534346726,5890.632930554841,5774.999919690583,5731.457158138876,5612.247868588096,3321.484515541478,5795.202757182874,4927.923804835269,-15305.7198775442,-7308.784284089741,-1297.1852955065272,-3022.4574239630447,2143.194800929019,-4674.8864023309,-4537.607494153473
-1603.3022027266652,-14380.153856779396,382.09714387592504,2765.4045506527546,6172.907979864824,4133.613486039009,-3168.143724140368,4166.992087113229,6980.582287437037,6518.552177830746,5591.982289364463,6506.505765412982,6302.6578802811455,4782.425729851972,7632.782584742495,4658.19710179379,5672.542672408254,5353.751935456928,-18028.3973091527,5893.832758853308,5777.446847212941,5733.966827392577,5615.071246498509,3322.613866705643,5797.335976048519,4930.1825071636,-15308.355030260587,-7308.972509283768,-1294.110950670744,-3021.579039724249,2143.383026123047,-4677.772521972655,-4539.427004362407
-1603.9923617714328,-14378.334346570464,375.63474554764593,2767.5377695184,6175.543132581208,4136.123155292711,-3168.4574327970804,4170.442882337068,6985.16243382504,6520.999105353104,5597.315336528577,6511.211395263671,6305.543999922902,4785.751041613126,7635.794187846935,4660.894996241519,5676.558143214175,5356.700796830026,-18023.87990449604,5898.161938315943,5780.583933780067,5737.480364347758,5618.208333065635,3324.2451517205486,5799.531936645506,4932.503951223272,-15309.484381424752,-7311.921370656865,-1293.107082969264,-3019.8850129780008,2142.002708033511,-4682.917343942742,-4541.560223228053
-1601.9218846371296,-14376.577578092874,378.14441480134656,2771.302273398951,6179.182152999074,4139.009274934467,-3165.759538349352,4174.207386217618,6989.491613287673,6524.073450188887,5599.38581366288,6515.164124338249,6308.053669176603,4789.139095105623,7638.052890175267,4663.718374151932,5679.63248804996,5359.335949546412,-18016.099929809567,5902.1146673905205,5782.968119571083,5740.303742258172,5620.467035393965,3325.374502884714,5800.974996466385,4934.323461432205,-15309.17067276804,-7315.560391074733,-1293.4835333573187,-3019.5085625899465,2140.434164749948,-4687.37200686806,-4543.505216899671
-1597.4044799804683,-14374.2561340332,385.4224556370785,2775.945161518297,6183.950524581105,4143.840388247841,-3157.289404618112,4177.909148366827,6993.569825824938,6528.590854845548,5599.38581366288,6518.050243980006,6311.065272281044,4793.154565911544,7642.7585200259555,4666.290785136976,5682.142157303659,5362.28481091951,-18011.331558227535,5905.879171271073,5785.728755750153,5743.189861899928,5622.537512528268,3326.692079242907,5802.543539749948,4936.205713372481,-15306.911970439707,-7315.748616268758,-1291.0366058349607,-3019.634046052631,2141.5007741827712,-4687.999424181486,-4544.760051526521
-1590.0636974133943,-14368.48389474969,393.9553310996607,2781.6546590704666,6190.8521150287825,4152.875197561163,-3143.5489654541007,4182.4892947548315,6998.840131257709,6536.37082953202,5598.88387981214,6520.999105353104,6316.147352519788,4799.428739045795,7654.491223787005,4669.929805554842,5685.718435990182,5367.429632889596,-18009.88849840666,5909.706416882966,5790.12067694413,5747.832750019274,5626.490241602847,3329.891907541375,5805.429659391703,4939.154574745579,-15302.582790977074,-7310.792019492701,-1285.3898500141343,-3016.747926410876,2143.7594765111016,-4683.544761256168,-4542.5640909295325
-1582.4092061896072,-14360.829403525902,399.6648286518297,2786.7367393092104,6197.3145133570615,4161.972748605828,-3132.318195543791,4186.6302490234375,7004.173178421824,6544.9664467259445,5599.636780588249,6523.88522499486,6322.107816997327,4806.142104299444,7668.984563727126,4674.509951942845,5689.608423333419,5373.452839098478,-18007.755279541012,5912.780761718749,5794.387114675421,5752.663863332648,5631.070387990851,3334.7857625860916,5809.31964673494,4942.354403044048,-15297.500710738332,-7304.0786542390515,-1280.621478432103,-3010.5364950079666,2144.135926899157,-4676.266720420435,-4536.038950869911
-1580.9661463687291,-14358.884409854283,401.2961136667352,2786.862222771895,6196.687096043636,4161.659039949115,-3135.831732498972,4186.002831710012,7003.7339863024245,6545.531122308028,5599.636780588249,6522.818615562037,6322.797976042094,4806.016620836759,7670.302140085319,4675.451077912982,5689.231972945362,5373.201872173108,-18006.186736257452,5911.400443629214,5793.885180824681,5752.036446019222,5630.7566793341375,3337.169948377107,5810.699964824476,4942.66811170076,-15296.74780996222,-7302.949303074886,-1282.5037303723786,-3006.8974745901005,2142.7556088096217,-4673.066892121968,-4531.333321019222
-1588.1814454731186,-14365.346808182563,400.7941798159951,2780.2115992495887,6187.401319804944,4149.361660605982,-3154.2778015136714,4179.352208187705,6995.452077765212,6534.363094129059,5595.684051513671,6516.042508577045,6315.45719347502,4795.726976896587,7650.475752981087,4670.306255942896,5682.455865960372,5363.916095934415,-18006.123994526108,5904.7498201069075,5787.548265959086,5744.130987870065,5624.670731393913,3334.4093121980363,5807.311911331978,4939.091833014237,-15302.896499633787,-7310.039118716591,-1291.914990073756,-3009.5953690378287,2142.3791584215664,-4676.643170808489,-4534.658632780376
-1597.2162547864411,-14373.69145845112,400.98240501002255,2772.494366294459,6177.362642790141,4135.307512785258,-3173.915963423879,4172.074167351972,6985.852592869808,6520.5599132337065,5592.233256289833,6509.015434666683,6306.48512589304,4782.927663702712,7622.869391190377,4663.530148957904,5674.487666079872,5352.873551218133,-18006.68867010819,5897.973713121915,5780.395708586039,5734.970695094057,5619.58865115517,3329.51545715332,5802.229831093236,4934.19797796952,-15310.049057006834,-7318.070060328432,-1300.4478655363382,-3014.9911579332847,2142.8810922723064,-4681.286058927837,-4541.873931884765
-1600.7925334729644,-14376.514836361532,398.59821921900686,2769.106312801963,6174.10007276033,4130.539141203228,-3181.1312625282685,4169.0625642475325,6981.586155138517,6514.91315741288,5593.864541304738,6506.819474069695,6302.595138549804,4777.092682687859,7609.128952026366,4660.393062390779,5671.2250960500605,5348.230663098786,-18006.62592837685,5895.965977718955,5778.011522795024,5731.268932944849,5620.278810199938,3326.754820974249,5799.657420108192,4932.064759103875,-15311.429375096368,-7318.697477641857,-1300.1968986109682,-3018.065502769068,2142.316416690224,-4681.160575465152,-4543.881667287726
-1599.6631823087992,-14374.130650570516,393.20243032355046,2769.7337301153884,6176.484258551345,4134.429128546463,-3175.4217649760994,4169.815465023642,6982.90373149671,6517.109118009867,5598.695654618112,6509.015434666683,6303.348039325913,4778.661225971422,7616.030542474044,4661.396930092259,5672.981864527652,5349.485497725636,-18001.23013948139,5898.914839092054,5780.081999929327,5732.962959691097,5623.7923471551185,3326.8803044369342,5800.912254735043,4933.758785850122,-15308.48051372327,-7313.0507218210305,-1293.609016820004,-3018.1909862317534,2141.5007741827712,-4677.584296778628,-4539.928938213147
-1598.1573807565787,-14372.122915167556,392.32404608475525,2771.051306473581,6178.993927805047,4138.82104974044,-3166.95163124486,4171.007557919152,6985.727109407122,6519.744270726253,5601.769999453895,6511.838812577096,6303.912714907997,4781.170895225122,7629.833723369396,4662.589022987767,5675.67975897538,5350.928557546515,-17995.708867123252,5902.553859509919,5781.5250597502045,5735.158920288085,5626.427499871505,3328.1351390637847,5803.735632645456,4935.264587402343,-15306.47277832031,-7308.470575433029,-1289.217095626028,-3017.6890523810134,2142.1281914961965,-4677.145104659231,-4535.411533556486
-1599.6004405774568,-14374.758067883942,394.5827484130858,2769.3572797273328,6177.174417596114,4137.628956844932,-3164.630187185187,4168.937080784847,6984.9742086310125,6517.799277054635,5597.88001211066,6510.395752756219,6300.6501448781855,4779.727835404245,7637.990148443923,4659.075486032586,5674.6758912739,5348.544371755499,-18003.049649690325,5901.236283151728,5778.325231451737,5734.092310855262,5626.992175453587,3327.5077217503595,5803.923857839483,4932.629434685958,-15308.919705842667,-7310.039118716591,-1292.165956999126,-3019.5713043212886,2144.135926899157,-4683.85846991288,-4534.53314931769
-1603.1767192639802,-14380.781274092824,388.3085752788343,2763.7732656378494,6172.029595626027,4131.85671756142,-3168.394691065738,4163.2275832326795,6979.766644929584,6512.7799385472335,5588.092302021227,6504.121579621968,6294.313230012592,4774.896722090872,7640.750784622994,4651.420994808799,5669.405585841128,5343.274066322728,-18019.487983302064,5894.522917898077,5772.364766974198,5730.076840049342,5624.545247931229,3323.8687013324934,5800.473062615645,4927.923804835269,-15315.068395514236,-7317.00345089561,-1300.2596403423108,-3025.029834948088,2145.7672119140625,-4694.712789435135,-4538.485878392269
-1603.7413948460628,-14384.796744898744,376.5758715177837,2759.193119249845,6168.516058670846,4127.966730218184,-3171.2808107074934,4158.77292030736,6974.621822959498,6509.580110248766,5579.810393484016,6498.474823801141,6290.0467922813,4771.257701673006,7642.695778294611,4645.586013793944,5664.0725386770155,5339.195853785464,-18032.78923034668,5887.4958439877155,5768.161070974249,5726.249594437448,5618.961233841745,3320.2924226459695,5797.398717779862,4926.104294626336,-15318.268223812704,-7322.712948447779,-1307.1612307899875,-3029.6099813360916,2145.265278063322,-4701.990830270867,-4544.383601138466
-1600.2905996222244,-14384.16932758532,373.12507629394526,2759.757794831928,6169.017992521585,4128.719630994296,-3171.2808107074934,4159.588562814813,6972.8650544819075,6509.9565606368205,5579.120234439247,6497.784664756373,6290.297759206671,4771.257701673006,7645.330931010998,4645.648755525287,5662.127545005396,5338.380211278011,-18035.989058645147,5885.048916465357,5767.408170198139,5724.241859034488,5613.063511095548,3319.602263601202,5797.085009123149,4927.798321372584,-15316.511455335114,-7321.3326303582435,-1307.9141315660977,-3028.104179783871,2143.5712513170743,-4699.355677554481,-4547.081495586193
-1597.7181886371811,-14381.157724480876,379.90118327893697,2763.7732656378494,6170.962986193204,4131.292041979337,-3169.8377508866156,4163.729517083419,6973.555213526675,6511.901554308439,5584.390539872018,6500.482559204101,6292.744686729029,4772.700761493882,7643.260453876695,4649.664226331209,5662.692220587479,5338.882145128751,-18029.463918585523,5886.868426674289,5768.4120378996195,5723.677183452405,5609.86368279708,3320.6688730340247,5797.524201242546,4929.680573312859,-15314.127269544098,-7315.372165880704,-1302.7693095960115,-3023.0220995451273,2143.0693174663343,-4689.1915170769935,-4544.5718263324925
-1598.1573807565787,-14379.21273080926,388.74776739823193,2766.3456766228924,6170.837502730519,4131.668492367393,-3168.5829162597647,4166.050961143092,6973.994405646073,6512.027037771124,5587.025692588404,6501.235459980211,6293.434845773797,4772.261569374486,7632.217909160413,4651.232769614771,5662.692220587479,5337.878277427271,-18024.507321809466,5887.746810913085,5767.659137123509,5722.4850905568965,5608.60884817023,3321.1708068847647,5796.959525660464,4929.304122924804,-15313.499852230672,-7312.674271432976,-1299.067547446803,-3021.2025893361943,2143.5712513170743,-4681.5370258532075,-4540.24264686986
-1601.231725592362,-14380.279340242081,391.44566184596,2764.9653585333567,6168.265091745477,4128.594147531609,-3171.9709697522608,4163.792258814761,6972.990537944592,6509.517368517423,5581.44167849892,6498.223856875769,6291.615335564864,4770.002867046155,7618.2265030710305,4648.22116651033,5661.374644229286,5335.36860817357,-18026.70328240645,5885.048916465357,5765.023984407122,5720.414613422594,5607.918689125462,3320.0414557206,5795.892916227641,4927.672837909899,-15315.758554559003,-7316.187808388157,-1301.0125411184208,-3023.5867751272094,2143.2575426603617,-4682.478151823345,-4539.176037437037
-1605.121712935598,-14381.910625256987,386.0498729505037,2762.3929475483137,6167.072998849969,4126.084478277909,-3176.42563267758,4160.968880904348,6972.363120631168,6508.388017353258,5573.410736887078,6495.902412816097,6290.8624347887535,4769.12448280736,7611.324912623353,4645.146821674547,5661.123677303916,5334.741190860145,-18029.840368973575,5882.162796823602,5764.208341899671,5720.100904765882,5608.797073364257,3318.849362825092,5796.018399690326,4927.3591292531855,-15318.456449006731,-7321.897305940326,-1303.9614024915193,-3025.84547745554,2143.508509585732,-4687.999424181486,-4541.49748149671
-1607.8196073833262,-14381.785141794304,378.96005730879926,2761.5773050408607,6168.9552507902445,4126.837379054019,-3175.5472484387847,4161.28258956106,6972.990537944592,6510.834944875616,5571.2147762900895,6496.592571860865,6292.430978072316,4770.567542628238,7612.767972444232,4644.770371286492,5662.378511930766,5336.999893188476,-18030.78149494372,5881.409896047491,5766.216077302631,5721.543964586759,5610.930292229903,3319.100329750462,5797.210492585834,4928.802189074064,-15318.393707275389,-7325.850035014904,-1304.7143032676295,-3025.970960918225,2145.7672119140625,-4692.014894987407,-4543.379733436986
-1608.1333160400388,-14380.091115048055,378.52086518940166,2762.769397936369,6171.904112163344,4129.409790039063,-3170.5279099313834,4163.541291889391,6975.123756810238,6514.473965293481,5576.234114797491,6498.8512741891955,6294.438713475277,4773.516404001336,7617.097151906865,4645.8997224506575,5664.448989065068,5340.701655337684,-18031.157945331768,5882.790214137027,5769.353163869757,5723.865408646432,5612.6870607074925,3320.0414557206,5798.716294138055,4930.809924477025,-15316.260488409744,-7326.101001940274,-1303.710435566149,-3024.9670932167446,2146.9593048095703,-4693.08150442023,-4542.75231612356
-1605.4354215923106,-14377.142253674956,383.91665408485807,2765.0281002647,6174.6020066110705,4132.672360068873,-3165.0066375732417,4165.611769023694,6977.884392989308,6517.67379359195,5585.457149304842,6500.670784398128,6296.634674072265,4776.967199225174,7622.053748682924,4647.531007465563,5667.146883512797,5345.093576531661,-18029.77762724224,5885.174399928042,5772.615733899567,5726.939753482216,5614.443829185084,3320.7943564967095,5800.284837421616,4932.6921764173,-15312.495984529192,-7322.085531134355,-1301.0125411184208,-3023.147583007812,2145.8926953767473,-4692.140378450092,-4539.928938213147
-1601.231725592362,-14374.632584421255,388.3085752788343,2766.0947096975224,6175.668616043893,4134.680095471834,-3162.8106769762535,4165.549027292352,6978.762777228104,6518.552177830746,5591.919547633121,6500.608042666786,6298.3287008185125,4778.59848424008,7626.1947029515295,4648.534875167044,5668.840910259046,5348.105179636102,-18027.267957988537,5886.61745974892,5774.686211033872,5729.449422735916,5615.886889005961,3320.731614765368,5800.033870496247,4933.633302387438,-15308.919705842667,-7316.313291850842,-1298.1264214766652,-3020.324205097399,2144.8260859439247,-4691.82666979338,-4536.478142989309
-1598.6593146073187,-14374.883551346627,387.86938315943667,2764.337941219932,6173.472655446904,4133.801711233038,-3163.8145446777335,4162.851132844623,6977.0060087505135,6516.4189589651005,5590.162779155529,6498.914015920537,6297.952250430458,4778.473000777395,7627.449537578381,4647.907457853617,5668.715426796361,5348.356146561471,-18027.267957988537,5886.241009360865,5774.748952765212,5730.578773900082,5615.133988229852,3319.2885549444895,5797.837909899259,4932.315726029245,-15308.919705842667,-7313.364430477743,-1297.74997108861,-3018.4419531571234,2144.512377287212,-4693.771663464998,-4536.038950869911
-1597.843672099866,-14375.69919385408,383.791170622173,2761.640046772204,6170.58653580515,4133.299777382297,-3159.548106946443,4160.404205322266,6975.68843239232,6515.477832994961,5584.892473722758,6498.035631681742,6297.3248331170325,4780.041544060958,7628.390663548518,4648.22116651033,5669.593811035155,5348.858080412211,-18026.452315481085,5886.429234554893,5775.313628347296,5732.210058914987,5615.008504767166,3317.0925943475017,5796.520333541065,4930.558957551654,-15310.550990857577,-7312.799754895663,-1298.0009380139802,-3017.877277575041,2144.135926899157,-4693.08150442023,-4539.050553974352
-1594.8320689954255,-14371.370014391447,382.03440214458254,2763.3340735184515,6172.907979864824,4138.82104974044,-3142.6705812153054,4163.353066695364,6979.076485884816,6521.4382974725,5586.147308349608,6502.615778069747,6301.591270848324,4786.81765104595,7634.853061876798,4654.809048301295,5675.554275512694,5354.81854488975,-18015.15880383943,5892.6406659578015,5780.89764243678,5738.045039929841,5620.718002319335,3317.531786466899,5798.904519332082,4932.94314334267,-15308.104063335217,-7309.725410059877,-1293.6717585513463,-3015.1166413959695,2143.006575734992,-4684.36040376362,-4539.928938213147
-1590.5656312641343,-14364.907616063167,384.1048792788857,2768.1651868318254,6178.178285297594,4145.848123650801,-3128.9301420512948,4170.066431949012,6984.848725168328,6529.8456894723995,5593.237123991313,6510.70946141293,6308.994795146741,4794.848592657792,7642.946745219982,4665.349659166837,5684.024409243934,5363.28867862099,-17997.277410406812,5903.306760286029,5789.11680924265,5745.574047690943,5627.305884110299,3321.7982241981904,5803.233698794716,4938.025223581414,-15303.272950021841,-7305.019780209187,-1287.7112940738075,-3010.5364950079666,2141.249807257401,-4673.129633853308,-4536.4154012579675
-1589.4990218313114,-14364.53116567511,388.87325086091687,2771.051306473581,6179.621345118472,4145.722640188116,-3139.6589781108646,4174.395611411646,6987.672103078741,6531.916166606702,5596.876144409179,6515.791541651675,6313.010265952662,4797.358261911492,7644.515288503546,4671.184640181692,5688.66729736328,5366.864957307514,-17991.00323727256,5909.07899956954,5794.010664287366,5748.899359452096,5627.682334498354,3326.692079242907,5806.809977481239,4941.225051879882,-15301.955373663648,-7303.953170776366,-1287.2093602230673,-3008.4660178736635,2140.057714361893,-4668.6122291966485,-4531.27057928788
-1591.381273771587,-14370.303404958622,395.084682263826,2771.615982055664,6177.2371593274565,4139.950400904605,-3165.696796618009,4175.211253919099,6987.044685765316,6528.277146188836,5594.680183812191,6516.105250308387,6312.445590370579,4794.409400538394,7640.248850772255,4670.180772480211,5688.416330437911,5364.919963635896,-18001.543848138106,5907.384972823293,5794.449856406764,5747.393557899876,5623.541380229749,3328.950781571237,5808.692229421515,4941.2877936112245,-15304.653268111379,-7307.466707731547,-1291.4757979543583,-3009.971819425884,2141.6889993767986,-4672.063024420488,-4529.1373604222335
-1593.5144926372325,-14376.012902510793,399.4766034578022,2772.3061411004314,6175.60587431255,4135.495737979286,-3183.3272231252568,4174.897545262385,6985.601625944438,6524.575384039627,5590.601971274928,6514.724932218852,6310.626080161646,4790.644896657843,7636.547088623046,4666.729977256373,5686.40859503495,5361.657393606085,-18015.535254227485,5903.620468942742,5792.6303461978305,5744.319213064093,5619.400425961143,3328.8252981085525,5808.692229421515,4939.593766864977,-15306.911970439707,-7311.733145462838,-1295.1148183722244,-3013.171647724352,2144.324152093184,-4677.709780241314,-4531.709771407278
-1594.3301351446853,-14377.769670988382,397.8453184428968,2774.7530686227897,6177.111675864771,4136.060413561368,-3183.6409317819694,4175.587704307153,6985.852592869808,6524.198933651572,5588.656977603308,6514.724932218852,6310.375113236276,4789.82925415039,7637.739181518554,4664.784983584755,5685.40472733347,5360.653525904605,-18022.68781160053,5902.051925659179,5791.250028108295,5742.876153243215,5618.208333065635,3329.389973690635,5808.31577903346,4938.527157432153,-15306.410036588968,-7313.8663643284835,-1296.2441695363896,-3015.1793831273126,2144.5751190185542,-4681.85073450992,-4535.411533556486
-1595.020294189453,-14377.644187525697,389.8771185623972,2776.8862874884358,6179.935053775184,4139.072016665808,-3174.355155543277,4176.403346814607,6986.856460571288,6525.89296039782,5588.970686260022,6515.164124338249,6310.9397888183585,4790.5194131951575,7640.688042891651,4664.094824539987,5684.965535214073,5361.218201486688,-18024.44458007812,5901.6127335397805,5790.057935212787,5742.436961123817,5618.459299991005,3330.2683579294303,5807.625619988692,4937.711514924701,-15307.16293736508,-7317.00345089561,-1297.5617458945826,-3016.3714760228204,2143.5712513170743,-4686.744589554635,-4538.360394929584
-1596.6515792043583,-14379.400956003288,386.42632333855875,2776.6353205630653,6181.001663208007,4140.264109561317,-3168.771141453793,4175.462220844469,6986.417268451891,6525.955702129163,5588.719719334652,6513.9092897114,6310.061404579564,4788.950869911594,7638.429340563322,4662.6517647191085,5683.020541542454,5360.151592053865,-18024.88377219752,5899.981448524876,5787.171815571032,5740.241000526828,5616.702531513414,3328.1978807951273,5804.739500346936,4934.574428357576,-15312.24501760382,-7324.093266537315,-1301.3262497751334,-3020.7633972167964,2143.2575426603617,-4694.399080778423,-4541.99941534745
-1597.7181886371811,-14381.094982749535,388.24583354749166,2774.1256513093645,6180.5624710886095,4140.075884367289,-3169.8377508866156,4172.764326396741,6985.350659019068,6524.575384039627,5586.335533543636,6511.462362189041,6308.304636101972,4786.441200657894,7632.6571012798095,4661.083221435546,5680.63635575144,5358.0811149195615,-18024.193613152755,5898.412905241313,5784.787629780016,5737.543106079101,5614.004637065686,3324.5588603772608,5801.163221660413,4930.872666208367,-15317.578064767937,-7329.175346776057,-1303.710435566149,-3026.7238616943355,2142.190933227539,-4699.9830948679055,-4545.0737601832325
-1596.588837473016,-14379.71466466,383.35197850277547,2771.239531667609,6180.123278969212,4140.201367829975,-3171.092585513466,4170.442882337068,6985.16243382504,6523.759741532174,5582.257321006373,6509.642851980108,6307.614477057205,4785.562816419099,7629.331789518656,4661.083221435546,5679.6952297813,5357.2654724121085,-18021.432976973683,5898.663872166683,5785.038596705385,5736.915688765675,5613.1889945582325,3322.8648336310134,5799.469194914164,4929.806056775545,-15318.20548208136,-7326.101001940274,-1300.6988324617084,-3028.104179783871,2141.5635159141134,-4697.473425614206,-4545.952144422029
-1594.9575524581105,-14377.581445794354,375.38377862227594,2769.9846970407584,6178.7429608796765,4138.883791471782,-3173.037579185084,4169.25078944156,6984.346791317587,6522.128456517269,5578.053625006424,6508.19979215923,6306.924318012438,4784.872657374332,7628.767113936573,4661.585155286287,5679.067812467875,5356.387088173314,-18017.731214824475,5899.228547748766,5785.038596705385,5736.852947034333,5613.063511095548,3322.990317093698,5798.841777600739,4930.370732357627,-15316.135004947058,-7319.701345343337,-1297.3107789692124,-3025.0925766794303,2143.194800929019,-4689.0032918829675,-4546.2031113473995
-1593.70271783126,-14375.134518271996,375.6974872789884,2771.741465518349,6177.2371593274565,4137.127022994192,-3175.986440558182,4169.564498098272,6983.593890541478,6520.18346284565,5576.924273842259,6507.446891383121,6306.045933773642,4784.245240060905,7630.398398951478,4661.836122211656,5678.503136885793,5355.2577370091485,-18013.841227481236,5899.416772942794,5784.1602124665915,5736.7274635716485,5613.063511095548,3323.492250944438,5798.904519332082,4931.249116596422,-15313.562593962013,-7315.121198955334,-1296.1814278050472,-3022.018231843647,2145.077052869294,-4678.9018731368205,-4545.0737601832325
-1590.7538564581619,-14370.177921495939,384.4813296669407,2776.8862874884358,6179.182152999074,4139.134758397152,-3172.6611287970286,4173.078035053452,6986.668235377261,6522.128456517269,5581.253453304893,6509.517368517423,6307.99092744526,4786.315717195209,7634.790320145455,4664.032082808645,5680.69909748278,5356.951763755396,-18008.94737243652,5901.236283151728,5785.791497481496,5738.860682437294,5615.635922080592,3325.499986347399,5801.414188585783,4933.884269312808,-15308.605997185956,-7311.0429864180705,-1293.4207916259763,-3019.0693704705486,2143.822218242444,-4669.992547286184,-4540.807322451942
-1587.742253353721,-14365.033099525852,394.1435562936882,2782.093851189864,6183.32310726768,4143.463937859786,-3164.0027698717618,4177.909148366827,6991.938540810032,6526.771344636615,5588.2805272152555,6513.532839323344,6311.818173057153,4789.390062030992,7638.115631906608,4667.357394569798,5684.526343094673,5360.277075516548,-18004.304484317174,5904.498853181537,5789.179550973992,5742.248735929788,5619.83961808054,3328.448847720497,5805.304175929019,4937.335064536646,-15302.582790977074,-7308.282350239,-1290.471930252878,-3016.3714760228204,2140.8106151380034,-4666.7927189877155,-4535.976209138568
-1588.2441872044612,-14364.468423943768,399.2256365324321,2783.2232023540287,6184.828908819901,4144.593289023951,-3160.740199841951,4179.352208187705,6993.88353448165,6528.465371382863,5592.233256289833,6515.540574726305,6313.135749415347,4789.641028956363,7636.735313817076,4667.859328420537,5685.40472733347,5360.779009367288,-18003.739808735092,5905.439979151675,5789.8069682874175,5742.938894974557,5621.34541963276,3329.3272319592925,5806.559010555869,4937.899740118729,-15300.073121723372,-7309.474443134509,-1291.7895066110707,-3016.559701216848,2140.8106151380034,-4671.372865375719,-4534.407665855006
-1590.8165981895042,-14368.546636481033,399.9157955771998,2780.650791368986,6183.197623804996,4141.769911113538,-3165.194862767269,4177.281731053402,6991.62483215332,6526.7086029052725,5592.107772827148,6514.348481830797,6311.4417226690975,4787.194101434005,7635.16677053351,4665.2869174354955,5683.271508467824,5358.834015695672,-18007.755279541012,5903.620468942742,5787.611007690429,5741.182126496968,5619.902359811882,3327.319496556332,5804.551275152909,4935.452812596371,-15302.331824051704,-7313.238947015059,-1295.0520766408815,-3018.881145276521,2142.9438340036486,-4678.964614868163,-4535.160566631116
-1592.3223997417247,-14372.75033248098,396.90419247275906,2777.576446533202,6181.503597058746,4140.013142635948,-3166.763406050832,4175.085770456414,6989.177904630961,6525.767476935135,5591.166646857009,6512.7799385472335,6309.998662848221,4786.315717195209,7639.056757876746,4662.839989913136,5681.953932109632,5358.269340113588,-18012.021717272302,5901.863700465152,5786.669881720291,5740.742934377568,5619.58865115517,3325.2490194220286,5802.731764943976,4932.880401611327,-15305.908102738227,-7314.932973761307,-1294.5501427901415,-3020.637913754112,2144.135926899157,-4683.60750298751,-4535.850725675884
-1592.1969162790397,-14374.6953261526,391.7593705026727,2775.5687111302423,6181.31537186472,4141.769911113538,-3159.9245573344974,4174.395611411646,6989.052421168277,6527.39876195004,5591.480355513721,6512.340746427836,6310.249629773592,4788.637161254882,7644.013354652807,4661.773380480314,5682.895058079769,5360.277075516548,-18012.460909391702,5901.738217002467,5787.736491153114,5742.750669780529,5623.102188110352,3324.6843438399455,5802.418056287263,4930.809924477025,-15308.041321603874,-7312.737013164318,-1291.413056223016,-3021.139847604852,2144.637860749897,-4685.552496659128,-4537.419268959447
-1590.3774060701066,-14374.883551346627,391.13195318924744,2776.00790324964,6182.632948222913,4144.906997680664,-3153.9013511256167,4176.089638157894,6990.809189645867,6529.971172935084,5596.562435752467,6513.846547980057,6312.382848639237,4792.276181672748,7643.762387727435,4663.6556324205885,5685.1537604081,5363.414162083675,-18004.053517391807,5904.05966106214,5789.556001362047,5746.075981541683,5629.7528116326575,3324.9353107653164,5802.919990138003,4930.621699282997,-15308.417771991928,-7308.784284089741,-1288.5896783126027,-3019.006628739206,2143.383026123047,-4685.803463584498,-4538.799587048982
-1587.616769891036,-14374.632584421255,399.4138617264597,2779.019506354081,6184.013266312448,4146.412799232884,-3156.7247290360297,4179.4776916503915,6992.754183317485,6530.724073711193,5605.84821199116,6516.858151084498,6314.139617116827,4794.221175344366,7639.6214334588285,4667.984811883223,5686.9732706170325,5365.233672292608,-17989.873886108395,5908.07513186806,5790.999061182924,5748.334683870014,5633.329090319181,3325.311761153371,5804.049341302169,4933.3195937307255,-15308.041321603874,-7306.713806955437,-1287.8995192678349,-3015.36760832134,2141.187065526058,-4684.485887226305,-4537.7957193475
-1587.491286428351,-14375.510968660052,407.38206160695927,2780.525307906301,6182.3192395662,4144.467805561266,-3164.630187185187,4180.2305924265,6991.938540810032,6527.837954069438,5608.922556826942,6517.297343203895,6312.320106907894,4792.589890329461,7635.041287070826,4669.553355166786,5685.90666118421,5363.28867862099,-17984.164388556226,5909.0162578382,5789.8069682874175,5746.264206735711,5628.4352352744645,3325.876436735454,5804.864983809621,4935.829262984425,-15308.919705842667,-7308.2196085076575,-1290.1582215961655,-3014.36374061986,2140.1204560932356,-4682.980085674085,-4535.976209138568
-1591.3185320402445,-14376.138385973476,402.67643175627046,2777.3882213391753,6177.7390931781965,4141.142493800113,-3169.273075304533,4176.215121620579,6987.985811735452,6523.696999800832,5600.703390021073,6513.030905472604,6307.802702251232,4788.888128180252,7633.347260324577,4665.91433474892,5682.079415572316,5359.0849826210415,-17992.069846705384,5904.373369718852,5785.979722675524,5740.680192646227,5618.58478345369,3326.441112317537,5804.363049958881,4935.013620476972,-15310.362765663547,-7310.2273439106175,-1292.667890849866,-3016.3714760228204,2139.304813585783,-4680.031224300987,-4536.54088472065
-1594.5811020700553,-14372.562107286954,393.6416224429482,2774.4393599660766,6176.1078081632895,4141.142493800113,-3167.3280816329147,4172.513359471371,6985.727109407122,6522.88135729338,5590.539229543585,6508.701726009969,6305.418516460218,4787.382326628032,7636.923539011101,4661.585155286287,5678.942329005191,5357.0772472180815,-18004.241742585833,5899.103064286081,5782.717152645713,5736.978430497018,5612.436093782122,3327.0685296309616,5803.547407451429,4932.754918148642,-15308.605997185956,-7309.411701403164,-1292.7933743125511,-3015.4930917840247,2138.802879735043,-4675.074627524928,-4537.544752422132
-1595.522228040193,-14367.793735704923,391.8848539653577,2774.815810354132,6178.178285297594,4143.024745740388,-3164.881154110557,4171.823200426603,6986.040818063836,6523.696999800832,5586.335533543636,6507.19592445775,6304.853840878134,4787.005876239977,7638.86853268272,4658.699035644529,5676.997335333573,5356.2616047106285,-18011.95897554096,5896.154202912982,5780.332966854698,5735.347145482113,5611.934159931383,3326.001920198139,5801.978864167865,4930.43347408897,-15304.904235036747,-7308.345091970343,-1291.099347566303,-3011.7913296348165,2139.869489167865,-4672.690441733912,-4536.038950869911
-1594.769327264083,-14365.660516839276,395.5866161145661,2776.5725788317222,6180.499729357266,4143.463937859786,-3165.885021812037,4172.513359471371,6986.542751914576,6523.446032875462,5587.841335095857,6507.007699263721,6304.038198370682,4785.374591225072,7633.849194175318,4656.754041972913,5674.926858199269,5354.128385844983,-18014.468644794662,5894.58565962942,5778.387973183079,5733.5903770045215,5614.632054379112,3321.9864493922178,5799.155486257452,4927.798321372584,-15302.771016171102,-7309.097992746453,-1288.27596965589,-3010.4110115452813,2140.685131675318,-4674.008018092105,-4534.219440660978
-1591.0675651148745,-14364.468423943768,401.9235309801603,2779.395956742136,6183.07214034231,4144.593289023951,-3163.8145446777335,4174.270127948961,6987.421136153371,6524.324417114257,5592.609706677888,6508.137050427888,6304.038198370682,4785.123624299701,7629.582756444027,4656.252108122173,5674.111215691817,5352.748067755448,-18015.535254227485,5894.209209241364,5778.137006257709,5733.52763527318,5618.58478345369,3318.786621093749,5797.7751681679165,4927.233645790501,-15301.453439812907,-7310.039118716591,-1285.1388830887643,-3010.7247202019935,2140.434164749948,-4675.953011763723,-4533.592023347553
-1587.1775777716384,-14363.903748361687,404.74690889057354,2781.152725219726,6185.519067864669,4147.165700008994,-3155.658119603207,4175.336737381784,6989.115162899619,6526.520377711246,5595.872276707699,6509.329143323395,6304.540132221422,4787.382326628032,7631.841458772356,4655.624690808748,5674.6758912739,5353.6264519942415,-18019.11153291401,5893.707275390624,5778.576198377105,5735.472628944798,5621.094452707392,3318.723879362407,5798.7790358693965,4928.739447342721,-15300.888764230827,-7311.0429864180705,-1284.009531924599,-3011.2266540527335,2140.183197824578,-4678.713647942794,-4534.031215466951
-1585.6090344880752,-14364.593907406452,400.35498769659733,2780.337082712273,6187.024869416889,4149.80085272538,-3147.7526614540498,4174.897545262385,6990.934673108552,6528.779080039576,5596.4369522897805,6509.893818905478,6304.853840878134,4790.456671463815,7635.919671309619,4654.620823107266,5675.993467632093,5355.7596708598885,-18024.946513928862,5892.577924226458,5778.638940108449,5737.417622616416,5621.094452707392,3320.2924226459695,5800.724029541016,4930.43347408897,-15301.20247288754,-7312.172337582235,-1284.511465775339,-3010.7247202019935,2139.116588391756,-4682.7291187487135,-4535.976209138568
-1583.0366235030324,-14365.033099525852,397.46886805484166,2780.5880496376435,6188.028737118369,4152.436005441766,-3149.25846300627,4176.089638157894,6992.6286998548,6530.8495571738795,5599.38581366288,6511.587845651728,6306.045933773642,4793.405532836913,7636.986280742443,4655.624690808748,5678.252169960423,5357.955631456876,-18030.593269749686,5893.017116345856,5779.64280780993,5738.797940705951,5619.902359811882,3322.3001580489304,5803.170957063373,4932.8176598799855,-15299.947638260688,-7310.729277761358,-1282.566472103721,-3008.905209993061,2137.610786839535,-4683.85846991288,-4535.7252422132
-1576.7624503687807,-14362.146979884095,403.9312663831208,2785.1054542943048,6190.161955984016,4155.573092008892,-3154.4032849763566,4181.422685322008,6995.1383691085,6533.296484696237,5608.169656050832,6516.356217233758,6309.747695922851,4796.668102866724,7639.809658652857,4661.020479704204,5681.891190378289,5361.092718024001,-18033.60487285413,5896.969845420435,5783.3445699591375,5741.746802079048,5621.470903095445,3325.876436735454,5807.123686137952,4937.6487731933585,-15294.677332827916,-7302.823819612202,-1275.7276233873868,-3004.3250636050566,2138.802879735043,-4676.14123695775,-4527.443333675987
-1573.1234299509147,-14359.386343705024,412.0249497263055,2787.803348742033,6189.597280401932,4155.008416426809,-3152.521033036081,4184.183321501079,6994.197243138362,6532.543583920126,5611.3694843493,6518.42669436806,6311.316239206414,4796.542619404039,7643.88787119012,4664.784983584755,5682.079415572316,5361.657393606085,-18033.22842246608,5899.354031211451,5785.289563630756,5742.876153243215,5623.353155035721,3327.821430407072,5808.31577903346,4940.2839259097445,-15290.348153365285,-7295.483037045126,-1271.523927387438,-2999.556692023026,2140.8106151380034,-4664.9732087787825,-4517.655623586554
-1581.0916298314144,-14365.22132471988,410.14269778603,2780.148857518246,6180.499729357266,4145.534414994088,-3152.081840916684,4175.775929501182,6984.284049586246,6523.88522499486,5595.307601125616,6509.140918129368,6303.159814131886,4788.072485672799,7640.437075966282,4658.448068719161,5672.919122796309,5354.128385844983,-18032.78923034668,5892.389699032432,5778.262489720393,5735.221662019428,5618.459299991005,3322.4256415116156,5800.8495130037,4933.507818924752,-15296.434101305507,-7301.318018059981,-1279.55486899928,-3003.2584541722345,2139.618522242496,-4664.91046704744,-4521.733836123817
-1595.396744577508,-14375.134518271996,399.79031211451473,2768.227928563168,6169.457184640984,4135.119287591231,-3158.606980976305,4162.976616307308,6973.053279675934,6514.536707024825,5573.598962081105,6496.2161214728085,6291.803560758891,4778.4102590460525,7633.535485518605,4647.656490928248,5661.751094617342,5345.281801725688,-18033.542131122787,5882.539247211656,5767.847362317536,5725.496693661337,5612.185126856753,3314.0182495117183,5791.438253302323,4923.343658447265,-15309.798090081464,-7313.489913940429,-1292.2914404618111,-3012.8579390676396,2137.73627030222,-4673.88253462942,-4535.474275287828
-1604.870746010228,-14379.840148122685,388.1203500848067,2761.9537554289163,6165.567197297748,4131.668492367393,-3164.3792202598165,4157.078893561112,6969.602484452096,6511.901554308439,5565.379795275236,6491.698716816149,6287.223414370888,4775.7751063296655,7631.465008384303,4642.511668958162,5658.174815930817,5342.6466490093035,-18032.35003822728,5879.653127569901,5763.9573749743,5722.610574019582,5610.930292229903,3310.692937750565,5788.426650197882,4919.641896298057,-15319.083866320156,-7317.881835134404,-1296.4323947304172,-3019.257595664576,2137.73627030222,-4679.341065256219,-4541.685706690738
-1606.2510640997634,-14378.961763883888,383.28923677143285,2762.8321396677115,6168.139608282792,4133.174293919613,-3163.7518029463918,4158.898403770045,6972.614087556537,6513.972031442742,5570.022683394582,6495.149512039987,6289.607600161903,4778.033808657997,7634.16290283203,4644.456662629779,5661.060935572574,5344.654384412264,-18027.518924913908,5883.229406256424,5766.467044228001,5724.932018079256,5611.620451274671,3312.7006731535257,5790.308902138157,4921.900598626387,-15320.087734021636,-7315.058457223992,-1291.8522483424135,-3018.630178351151,2138.614654541016,-4679.65477391293,-4537.983944541529
-1602.3610767565272,-14375.95016077945,387.6811579654091,2767.7259947124276,6173.472655446904,4137.252506456876,-3158.3560140509358,4164.482417859529,6977.884392989308,6518.17572744269,5579.747651752672,6501.109976517526,6294.877905594673,4780.919928299752,7638.931274414061,4649.852451525236,5665.515598497892,5348.167921367444,-18022.18587774979,5887.935036107113,5770.545256765265,5728.131846377723,5612.624318976151,3315.7750179893087,5793.320505242598,4925.665102506939,-15316.69968052914,-7313.803622597143,-1285.1388830887643,-3013.297131187037,2138.802879735043,-4679.780257375616,-4532.713639108758
-1598.0946390252363,-14373.69145845112,395.1474239951685,2772.243399369089,6178.617477416991,4142.522811889648,-3150.7642645584906,4169.188047710218,6982.213572451942,6523.320549412777,5586.837467394376,6505.062705592105,6299.144343325966,4783.241372359425,7642.256586175215,4653.8679223311565,5668.150751214278,5351.242266203227,-18021.244751779654,5890.444705360814,5772.67847563091,5730.076840049342,5613.879153603001,3317.4063030042144,5795.014531988846,4927.798321372584,-15313.374368767987,-7320.266020925421,-1280.0568028500204,-3009.4698855751435,2138.175462421618,-4683.85846991288,-4533.090089496813
-1593.7654595626027,-14371.934689973528,403.1783656070106,2775.7569363242696,6182.758431685596,4148.483276367188,-3139.1570442601246,4171.823200426603,6985.727109407122,6528.590854845548,5587.778593364515,6506.568507144325,6301.904979505036,4786.315717195209,7643.825129458777,4654.4953396445835,5669.029135453073,5353.438226800216,-18023.817162764695,5890.8211557488685,5773.180409481651,5731.206191213507,5614.381087453741,3317.970978586297,5795.077273720189,4927.861063103926,-15309.609864887436,-7329.489055432769,-1277.9235839843748,-3008.9679517244035,2138.2382041529604,-4689.818934390419,-4539.113295705694
-1586.8011273835832,-14367.919219167607,410.83285683079765,2780.839016563013,6187.965995387027,4155.82405893426,-3125.0401547080587,4175.085770456414,6990.746447914525,6534.927769711142,5588.2805272152555,6508.827209472655,6305.794966848272,4792.150698210064,7647.840600264698,4655.624690808748,5671.413321244088,5357.2654724121085,-18022.18587774979,5892.264215569747,5775.564595272665,5734.468761243317,5615.447696886564,3320.0414557206,5796.206624884354,4928.739447342721,-15303.774883872582,-7331.873241223787,-1276.2295572381267,-3007.1484415154705,2138.4891710783304,-4689.442484002364,-4541.873931884765
-1579.8995369359063,-14362.711655466179,412.2759166516755,2785.7956133390726,6192.859850431742,4161.972748605828,-3119.518882349917,4179.414949919048,6996.330462004008,6540.386300337941,5591.480355513721,6512.717196815892,6310.751563624332,4798.738580001027,7654.36574032432,4659.702903346011,5676.307176288805,5362.410294382195,-18012.711876317073,5896.216944644325,5780.270225123354,5739.864550138774,5618.271074796977,3323.931443063836,5799.720161839536,4932.064759103875,-15298.379094977126,-7331.935982955128,-1272.0258612381783,-3001.9408778140414,2136.6069191380548,-4685.86620531584,-4537.482010690789
-1579.0211526971111,-14362.27246334678,407.5702868009868,2785.48190468236,6192.044207924289,4160.592430516293,-3135.2043151855464,4180.2305924265,6996.769654123406,6539.256949173776,5590.539229543585,6513.532839323344,6311.818173057153,4799.55422250848,7655.8088001452,4661.710638748971,5678.565878617135,5363.28867862099,-18004.116259123148,5897.534521002518,5781.5250597502045,5741.558576885022,5619.776876349198,3324.9980524966586,5800.974996466385,4933.570560656095,-15298.25361151444,-7338.649348208777,-1271.649410850123,-2999.2429833663136,2133.6580577649565,-4688.752324957596,-4533.592023347553
-1585.546292756733,-14367.605510510895,401.3588553980777,2779.395956742136,6184.766167088558,4151.683104665655,-3163.1243856329666,4175.587704307153,6990.558222720497,6531.226007561934,5583.19844697651,6509.203659860711,6307.1125432064655,4793.091824180201,7651.10317029451,4658.448068719161,5674.801374736585,5357.955631456876,-18003.112391421662,5893.393566733912,5777.133138556229,5737.041172228361,5618.08284960295,3320.982581690738,5797.210492585834,4930.496215820312,-15303.2102082905,-7342.225626895301,-1282.2527634470084,-3001.8781360826993,2134.222733347039,-4693.144246151573,-4535.78798394454
-1594.3928768760277,-14371.809206510845,393.6416224429482,2772.494366294459,6177.927318372224,4144.028613441868,-3179.1862688566507,4169.564498098272,6984.095824392218,6524.3871588456,5578.1791084691085,6504.686255204048,6301.842237773694,4786.943134508633,7648.468017578125,4654.43259791324,5669.844777960526,5352.873551218133,-18005.998511063422,5889.127129002621,5772.92944255628,5732.711992765727,5616.5143063193855,3316.5906604967618,5792.9440548545435,4927.3591292531855,-15308.292288529245,-7330.555664865594,-1296.1814278050472,-3005.2034478438527,2137.2970781828226,-4690.8228020919,-4539.866196481805
-1599.2239901894015,-14371.432756122787,387.61841623406656,2769.0435710706206,6175.794099506577,4141.958136307565,-3176.9903082596625,4166.301928068462,6982.1508307206,6522.818615562037,5581.065228110865,6503.054970189144,6299.709018908048,4784.935399105673,7648.091567190068,4652.67582943565,5668.213492945621,5351.681458322625,-18008.88463070518,5888.750678614566,5772.741217362252,5732.586509303042,5617.267207095497,3315.2730841385687,5792.253895809776,4926.919937133788,-15309.421639693408,-7319.262153223939,-1299.6322230288856,-3007.8386005602383,2138.9911049290704,-4687.748457256116,-4542.124898810135
-1596.9025461297283,-14368.044702630292,392.51227127878286,2770.4866308914984,6177.4253845214835,4143.150229203073,-3166.4496973941195,4166.929345381887,6983.844857466847,6524.010708457545,5590.225520886873,6503.933354427938,6300.712886609528,4785.437332956414,7646.146573518451,4653.491471943102,5670.033003154554,5353.124518143502,-18008.696405511153,5891.323089599608,5775.439111809981,5735.221662019428,5619.3376842298,3316.2769518400487,5794.1361477500495,4928.049288297953,-15304.527784648692,-7328.610671193975,-1290.0954798648231,-3008.716984799033,2139.304813585783,-4696.218590987356,-4542.313124004163
-1590.5656312641343,-14364.154715287055,404.558683696546,2774.1256513093645,6180.499729357266,4145.09522287469,-3158.105047125565,4169.627239829615,6986.417268451891,6525.89296039782,5598.193720767372,6505.878348099557,6303.599006251285,4786.754909314607,7642.193844443872,4655.875657734116,5673.2328314530205,5355.508703934518,-18006.814153570875,5894.648401360761,5778.701681839792,5738.045039929841,5621.596386558131,3318.221945511667,5795.7674327649565,4929.304122924804,-15295.492975335368,-7347.558674059414,-1280.8097036261306,-3006.8347328587574,2138.8656214663856,-4711.966765554327,-4541.873931884765
-1587.1148360402958,-14363.401814510944,404.74690889057354,2774.1256513093645,6181.0644049393495,4145.283448068719,-3156.9129542300566,4170.25465714304,6986.668235377261,6526.457635979903,5597.754528647974,6506.505765412982,6304.916582609477,4787.31958489669,7637.362731130499,4656.816783704256,5674.613149542557,5356.951763755396,-18007.567054346982,5896.028719450297,5780.458450317382,5739.0489076313215,5622.662995990952,3319.53952186986,5796.2693666156965,4929.806056775545,-15288.716868350379,-7350.570277163856,-1283.7585649992288,-3006.7719911274153,2137.610786839535,-4717.048845793072,-4542.124898810135
-1585.671776219418,-14364.2174570184,393.0769468608655,2772.682591488486,6180.625212819952,4145.597156725431,-3157.352146349455,4170.191915411698,6986.542751914576,6526.8968280993,5593.864541304738,6507.635116577148,6305.73222511693,4788.260710866827,7635.919671309619,4657.883393137078,5675.554275512694,5358.206598382248,-18006.061252794767,5897.785487927888,5782.3407022576575,5739.990033601458,5623.666863692433,3320.6688730340247,5797.524201242546,4930.684441014339,-15285.328814857883,-7339.46499071623,-1292.667890849866,-3007.964084022923,2136.3559522126848,-4712.53144113641,-4541.811190153423
-1579.7740534732216,-14361.205853913956,390.1908272191097,2777.3882213391753,6183.8877828497625,4149.29891887464,-3154.842477095754,4175.023028725072,6990.432739257812,6530.222139860452,5597.4408199912605,6513.5955810546875,6310.061404579564,4792.150698210064,7640.562559428967,4664.032082808645,5680.259905363383,5361.782877068769,-17993.95209864566,5904.185144524825,5786.983590377004,5743.50357055664,5626.302016408819,3322.739350168328,5800.661287809672,4933.44507719341,-15281.564310977332,-7333.69275143272,-1296.7461033871296,-3004.9524809184823,2135.9167600932874,-4711.715798628958,-4540.305388601201
-1571.0529528166117,-14354.931680779704,399.9157955771998,2786.1093219957847,6188.969863088507,4153.941806993986,-3152.583774767424,4182.928486874229,6995.828528153268,6534.551319323087,5606.663854498612,6521.187330547132,6316.272835982472,4797.29552018015,7648.781726234837,4672.627700002568,5686.471336766293,5366.425765188116,-17979.396016974195,5911.400443629214,5792.37937927246,5748.271942138671,5629.690069901314,3325.5627280787407,5803.735632645456,4936.770388954564,-15275.227396111735,-7338.084672626695,-1297.1225537751848,-3000.497817993164,2135.979501824629,-4716.0449780915915,-4538.862328780325
-1564.0258789062495,-14348.657507645456,415.41300321880135,2791.5051108912417,6191.918724461605,4156.451476247687,-3151.140714946546,4187.383149799547,6998.714647795024,6536.935505114103,5611.306742617958,6524.63812577097,6319.598147743625,4800.683573672645,7656.749926115336,4676.894137733861,5689.859390258788,5369.688335217928,-17978.01569888466,5913.659145957545,5795.328240645558,5751.409028705797,5631.509580110248,3329.01352330258,5806.433527093184,4939.342799939607,-15264.749526977535,-7349.378184268348,-1297.9381962826376,-3000.309592799136,2134.912892391807,-4724.326886628803,-4537.482010690789
-1559.445732518246,-14343.261718749998,431.09843605443046,2791.8188195479543,6192.3579165810015,4156.012284128289,-3150.576039364463,4186.881215948807,6999.091098183079,6536.810021651418,5607.103046618009,6523.320549412777,6319.2216973555705,4801.436474448756,7660.890880383942,4675.200110987613,5690.047615452816,5370.629461188065,-17991.191462466588,5910.961251509816,5794.951790257504,5751.910962556537,5630.944904528164,3331.962384675678,5808.8177128842,4940.974084954512,-15251.950213783664,-7364.875391909951,-1300.0714151482832,-3003.5094210976044,2131.3366137052835,-4738.067325792814,-4537.356527228104
-1560.0731498316711,-14341.442208541066,426.39280620374166,2786.2348054584695,6189.78550559596,4151.432137740286,-3154.215059782329,4181.108976665296,6995.64030295924,6532.794550845497,5594.868409006219,6516.795409353155,6314.892517892938,4797.79745403089,7658.443952861584,4667.922070151881,5686.283111572265,5367.429632889596,-18011.519783421565,5903.934177599454,5790.62261079487,5748.397425601356,5627.05491718493,3330.707550048828,5807.751103451376,4939.342799939607,-15243.919272171823,-7381.815659372429,-1302.3301174766139,-3009.658110769172,2129.5171034963505,-4754.631142867239,-4543.693442093698
-1564.52781275699,-14342.8225266306,399.8530538458573,2777.3882213391753,6185.581809596011,4145.032481143348,-3161.242133692691,4172.638842934056,6989.491613287673,6526.583119442587,5580.93974464818,6507.697858308489,6308.492861296,4791.08408877724,7651.667845876592,4658.259843525133,5679.757971512643,5361.28094321803,-18028.585534346726,5895.715010793585,5783.971987272563,5742.248735929788,5621.596386558131,3325.6882115414264,5802.982731869346,4934.574428357576,-15240.90766906738,-7395.493356805097,-1304.4633363422593,-3017.438085455643,2133.9717664216687,-4768.559807225277,-4554.986953735352
-1563.5239450555096,-14341.630433735092,386.1753564131887,2774.9412938168166,6185.644551327353,4143.212970934415,-3164.755670647872,4169.439014635587,6987.4838778847125,6524.575384039627,5576.359598260176,6504.43528827868,6305.794966848272,4788.135227404142,7648.844467966179,4653.554213674444,5676.558143214175,5358.206598382248,-18033.542131122787,5893.017116345856,5781.0231258994645,5739.927291870116,5619.3376842298,3323.1158005563834,5800.222095690275,4932.19024256656,-15235.072688052527,-7399.508827611019,-1307.9141315660977,-3021.139847604852,2139.430297048468,-4775.461397672953,-4561.574835526314
-1555.4930034436677,-14337.552221197828,395.1474239951685,2780.023374055561,6189.910989058644,4146.287315770199,-3162.120517931486,4172.764326396741,6990.997414839894,6527.586987144068,5580.8142611854955,6507.886083502518,6307.363510131835,4790.142962807103,7649.095434891548,4655.122756958007,5677.875719572368,5359.398691277755,-18029.714885510894,5896.09146118164,5782.8426361083975,5742.248735929788,5620.467035393965,3324.5588603772608,5801.037738197728,4933.3195937307255,-15224.845785843696,-7398.56770164088,-1310.612026013826,-3021.139847604852,2139.869489167865,-4777.84558346397,-4561.574835526314
-1545.2033595034948,-14331.968207108346,406.6919025621916,2786.48577238384,6194.804844103361,4150.930203889545,-3156.285536916632,4177.595439710114,6995.201110839843,6531.916166606702,5586.398275274978,6512.215262965152,6310.249629773592,4792.966340717516,7643.009486951325,4659.514678151983,5680.259905363383,5361.782877068769,-18024.44458007812,5900.295157181588,5786.167947869552,5745.134855571546,5622.537512528268,3327.194013093647,5802.857248406661,4935.013620476972,-15212.171956112508,-7402.457688984116,-1309.670900043688,-3021.2025893361943,2137.73627030222,-4784.496206986276,-4559.378874929327
-1534.035331324527,-14323.184364720391,409.1388300845497,2791.5051108912417,6200.1378912674745,4156.9534100984265,-3148.944754349557,4181.736393978721,6998.275455675625,6536.747279920075,5589.40987837942,6515.352349532277,6314.390584042197,4795.852460359271,7631.904200503701,4664.847725316097,5683.14602500514,5364.857221904554,-18020.17814234683,5903.808694136769,5790.308902138157,5748.083716944644,5625.737340826737,3329.9546492727177,5805.115950734991,4936.582163760536,-15196.737490202247,-7413.24926677503,-1307.4749394467,-3019.5085625899465,2136.23046875,-4800.432606747276,-4556.430013556229
-1522.428111026161,-14313.020204242906,407.00561121890416,2795.0186478464225,6205.470938431588,4163.353066695364,-3143.4234819914163,4185.061705739874,7001.475283974095,6541.201942845393,5590.4137460809,6518.112985711348,6318.9079886988575,4799.365997314452,7625.818252563476,4669.365129972759,5687.098754079718,5368.370758859734,-18016.915572317022,5906.945780703895,5794.638081600791,5751.283545243112,5629.06265258789,3332.401576795076,5807.876586914062,4938.589899163497,-15179.420772351716,-7426.362288625616,-1305.8436544317947,-3013.7990650377774,2135.289342779862,-4820.6981859709085,-4553.732119108501
-1511.0091159218234,-14304.487328780324,410.2054395173725,2798.155734413548,6209.423667506168,4168.309663471422,-3143.611707185444,4187.822341918944,7005.302529585988,6544.276287681178,5591.66858070775,6520.999105353104,6322.045075265984,4803.381468120374,7629.582756444027,4672.502216539884,5691.553417005037,5371.382361964175,-18013.841227481236,5909.957383808336,5798.08887682463,5754.420631810238,5630.944904528164,3334.2210870040085,5810.32351443642,4940.848601491827,-15162.60598835192,-7434.205005043432,-1304.4633363422593,-3006.7092493960727,2134.7874089291217,-4835.567976299085,-4551.975350630912
-1502.5389821905835,-14297.209287944592,416.98154650236427,2800.414436741879,6210.803985595702,4171.007557919152,-3147.0625024092815,4189.6418521278765,7007.561231914318,6546.033056158768,5594.491958618163,6522.88135729338,6323.299909892834,4806.393071224815,7636.923539011101,4674.635435405529,5694.753245303505,5373.390097367135,-18009.010114167864,5912.216086136666,5800.159353958932,5756.365625481856,5631.446838378904,3335.4131798995163,5811.954799451325,4942.479886506732,-15148.991032650594,-7434.267746774773,-1304.5888198049443,-3002.7565203214945,2134.4737002724087,-4838.45409594084,-4550.657774272718
-1501.1586641010483,-14292.754625019272,418.2363811292146,2799.536052503084,6208.858991924085,4170.129173680355,-3147.627177991365,4188.826209620424,7005.741721705385,6545.4683805766845,5596.311468827096,6521.94023132324,6322.296042191354,4805.828395642732,7638.303857100636,4675.074627524928,5694.815987034847,5372.699938322368,-18003.739808735092,5912.09060267398,5800.0966122275895,5755.23627431769,5630.505712408768,3334.723020854749,5811.515607331928,4942.291661312705,-15141.963958740233,-7435.208872744912,-1307.4121977153577,-3003.2584541722345,2134.2854750783818,-4833.622982627467,-4550.657774272718
-1501.9743066085011,-14290.18221403423,417.7344472784745,2798.7831517269733,6207.2904486405205,4168.686113859478,-3142.0431639018807,4187.822341918944,7003.483019377055,6544.652738069232,5597.942753842001,6521.37555574116,6321.668624877929,4803.9461437024565,7635.4804791902225,4675.38833618164,5693.686635870682,5371.00591157612,-17998.65772849635,5911.651410554584,5799.720161839536,5753.22853891473,5629.878295095343,3333.4681862278985,5810.260772705077,4942.040694387335,-15137.94848793431,-7443.365297819437,-1309.1062244616055,-3005.517156500565,2133.9090246903265,-4832.995565314041,-4550.46954907869
-1496.9549681010997,-14285.539325914884,426.5182896664268,2803.0495894582646,6211.117694252415,4171.070299650492,-3134.7023813348064,4191.398620605469,7006.494622481496,6547.225149054276,5604.781602558336,6525.704735203793,6324.742969713712,4805.4519452546765,7637.362731130499,4678.776389674136,5695.6316295423,5372.323487934313,-17988.932760138257,5915.478656166478,5802.10434763055,5754.169664884867,5632.074255692331,3333.8446366159537,5810.699964824476,4943.860204596268,-15130.858672292607,-7451.835431550677,-1305.8436544317947,-3006.2073155453327,2133.8462829589844,-4840.4618313438,-4548.085363287673
-1486.288873772872,-14277.194675646328,444.52516656172895,2812.4608491596414,6219.776053177681,4177.783664904142,-3127.675307424445,4199.806012605365,7014.651047556024,6553.624805651212,5615.886889005961,6533.923902009662,6331.205368041991,4811.286926269529,7647.213182951274,4685.489754927786,5701.654835751182,5377.53105163574,-17975.882480019016,5923.635081241005,5807.311911331978,5758.749811272872,5636.968110737047,3335.9778554816,5813.084150615491,4946.558099043996,-15119.69064411364,-7453.5294582969245,-1301.765441894531,-3003.3211959035766,2134.912892391807,-4848.618256418328,-4545.701177496659
-1475.497295981959,-14266.905031706156,456.7598041735197,2821.683883666992,6229.187312879059,4186.002831710012,-3118.891465036492,4208.087921142577,7023.434889943976,6561.404780337684,5623.917830617804,6541.641134964792,6338.044216758326,4818.627708836605,7658.757661518298,4691.889411524721,5708.305459273488,5384.244416889391,-17969.859273810132,5930.850380345393,5812.205766376696,5764.584792287726,5642.112932707133,3338.2992995412724,5815.593819869191,4947.436483282792,-15106.138430143656,-7449.827696147715,-1300.6988324617084,-2998.9292747096006,2137.0461112574526,-4850.2495414332325,-4546.642303466796
-1469.6623149671052,-14259.56424913908,450.8620814273231,2824.6327450400895,6233.892942729749,4190.896686754728,-3112.6172919022406,4210.785815590306,7027.764069406609,6565.922184994345,5624.921698319284,6544.401771143863,6341.432270250822,4822.517696179842,7661.3300725033405,4693.457954808285,5711.379804109271,5387.757953844572,-17975.694254824986,5932.042473240902,5813.774309660258,5767.972845780221,5645.375502736944,3339.930584556177,5816.3467206453015,4945.491489611173,-15095.033143696028,-7446.690609580591,-1298.6910970587478,-2998.301857396176,2139.430297048468,-4847.363421791478,-4550.657774272718
-1468.8466724596524,-14258.246672780888,435.92954936780416,2821.370175010279,6232.575366371556,4190.9594284860705,-3111.11149035002,4207.7114707545215,7026.634718242443,6565.169284218236,5618.83575037906,6541.201942845393,6340.302919086656,4820.6981859709085,7652.10703799599,4689.442484002364,5709.685777363024,5385.750218441612,-17986.4858326159,5927.274101658872,5811.3901238692415,5766.9062363473995,5645.814694856342,3339.74235936215,5814.903660824424,4942.479886506732,-15090.076546919972,-7449.63947095369,-1296.055944342362,-3003.697646291632,2140.5596482126334,-4848.4300312243,-4556.680980481599
-1468.093771683542,-14260.254408183848,431.53762817382807,2817.9821215177835,6229.877471923827,4189.390885202508,-3112.178099782843,4203.758741679944,7023.936823794716,6562.157681113795,5609.424490677681,6536.684538188732,6338.044216758326,4816.933682090357,7639.684175190173,4684.8623376143605,5706.297723870528,5381.48378071032,-17992.822747481496,5921.752829300729,5807.751103451376,5763.078990735505,5641.485515393709,3337.169948377107,5812.644958496093,4940.848601491827,-15088.570745367751,-7457.6704125655315,-1297.4362624318971,-3010.7247202019935,2138.928363197728,-4856.021780716745,-4562.704186690481
-1464.4547512656764,-14260.128924721164,440.4469540244654,2818.044863249126,6229.563763267115,4188.826209620424,-3116.5700209768193,4202.441165321751,7023.372148212633,6560.275429173519,5602.522900230006,6534.802286248458,6337.793249832956,4815.616105732164,7633.849194175318,4683.795728181537,5704.7291805869645,5379.162336650647,-17994.328549033715,5919.305901778371,5805.743368048416,5759.94190416838,5633.329090319181,3334.5347956607206,5811.766574257297,4941.538760536594,-15085.872850920023,-7464.948453401263,-1300.7615741930508,-3011.854071366159,2135.791276630602,-4863.550788477847,-4564.084504780016
-1459.05896237022,-14254.921361019735,446.4074185020045,2820.7427576968544,6231.3205317447055,4190.206527709961,-3122.7187106483857,4203.633258217259,7025.191658421566,6560.840104755602,5601.39354906584,6535.429703561882,6339.424534847861,4817.749324597809,7636.42160516036,4685.3642714651005,5705.921273482472,5379.915237426757,-17994.4540324964,5919.933319091796,5806.245301899156,5759.43997031764,5626.803950259559,3333.781894884611,5812.456733302066,4943.922946327611,-15080.037869905167,-7466.516996684825,-1300.0714151482832,-3004.199580142372,2133.9090246903265,-4863.488046746505,-4557.622106451737
-1454.102365594161,-14247.329611527291,440.69792094983546,2823.6288773386095,6233.014558490952,4192.590713500977,-3125.855797215512,4205.515510157536,7027.073910361842,6563.161548815275,5603.2130592747735,6535.743412218595,6340.867594668739,4820.509960776881,7641.691910593133,4686.619106091951,5707.678041960064,5382.048456292402,-17993.88935691432,5920.623478136564,5807.123686137952,5760.004645899721,5624.168797543174,3333.5309279592407,5813.272375809518,4946.056165193256,-15072.132411756013,-7463.003459729644,-1294.8638514468544,-2994.7883204409945,2133.720799496299,-4856.084522448087,-4549.528423108552
-1450.5260869076376,-14240.177054154245,434.8629399349815,2826.389513517681,6235.586969475997,4196.7316677695835,-3121.4011342901927,4207.585987291837,7029.144387496144,6567.427986546566,5603.90321831954,6535.61792875591,6342.059687564247,4823.333338687294,7646.64850736919,4686.3681391665805,5708.8701348555705,5385.060059396844,-17994.70499942177,5919.745093897769,5807.5628782573485,5761.322222257913,5624.858956587941,3333.405444496556,5814.276243510999,4947.122774626079,-15064.666145726253,-7460.11734008789,-1289.468062551398,-2991.651233873869,2134.661925466437,-4848.4300312243,-4546.454078272769
-1447.5772255345391,-14234.028364482676,437.8118013080797,2830.0285339355464,6240.418082789371,4202.503907053094,-3110.35858957391,4210.660332127621,7032.846149645353,6573.012000636049,5604.216926976253,6537.437438964843,6344.38113162392,4827.4742929559,7650.977686831826,4685.86620531584,5710.877870258531,5389.640205784847,-17998.46950330232,5919.3686435097125,5809.1941632722555,5764.647534019068,5628.4352352744645,3334.973987780119,5815.8447867945615,4948.377609252929,-15059.082131636767,-7461.183949520712,-1287.4603271484373,-2993.1570354260894,2135.7285348992596,-4847.112454866107,-4547.771654630961
-1446.196907445004,-14231.079503109579,443.8350075169613,2832.726428383274,6244.370811863949,4205.139059769479,-3103.519740857576,4213.358226575348,7035.230335436368,6575.709895083777,5604.781602558336,6539.884366487201,6346.388867026881,4830.172187403628,7652.420746652702,4685.238788002415,5712.509155273437,5393.279226202712,-18003.42610007838,5919.431385241056,5810.762706555817,5767.408170198139,5631.384096647563,3337.169948377107,5817.099621421412,4949.820669073807,-15055.819561606955,-7464.007327431126,-1289.2798373573703,-2992.7178433066915,2135.665793167917,-4852.508243761564,-4550.783257735402
-1447.1380334151415,-14231.769662154347,447.0348358154296,2832.412719726562,6244.872745714689,4203.256807829204,-3108.3508541709493,4214.048385620117,7035.104851973683,6575.019736039009,5603.526767931486,6540.888234188681,6346.388867026881,4830.109445672286,7655.620574951171,4684.234920300935,5712.509155273437,5394.345835635536,-18006.563186645504,5918.8667096589725,5810.699964824476,5768.035587511564,5631.446838378904,3338.98945858604,5818.1662308542345,4950.761795043944,-15055.568594681588,-7465.6386124460305,-1291.7895066110707,-2989.831723664936,2135.791276630602,-4858.280483045076,-4552.665509675678
-1447.7654507285667,-14231.832403885688,449.04257121839015,2831.785302413137,6244.998229177374,4203.005840903834,-3113.621159603721,4214.926769858912,7036.296944869191,6575.835378546463,5602.585641961348,6542.4567774722445,6347.016284340306,4831.4897637618205,7666.34941101074,4685.176046271073,5714.0149568256575,5395.788895456414,-18005.49657721268,5919.933319091796,5811.829315988641,5769.980581183182,5632.199739155016,3341.9383199591384,5820.926867033305,4952.518563521535,-15056.38423718904,-7465.701354177374,-1290.9111223722757,-2987.133829217208,2136.4814356753695,-4859.221609015212,-4551.2224498548
-1445.004814549496,-14228.381608661852,450.7993396959806,2833.9812630101246,6247.5706401624175,4207.460503829153,-3108.7273045590046,4217.687406037982,7039.747740093028,6579.223432038959,5607.416755274721,6545.719347502055,6350.341596101458,4834.43862513492,7677.705664383738,4689.37974227102,5717.403010318153,5398.486789904142,-18001.794815063473,5923.195889121607,5815.656561600534,5773.5568598697055,5635.964243035567,3344.824439600894,5823.499278018348,4955.216457969264,-15055.12940256219,-7463.12894319233,-1285.5780752081619,-2982.6164245605464,2137.0461112574526,-4855.017913015265,-4546.3913365414255
-1441.9932114450553,-14225.683714214125,448.41515390496494,2835.1106141742903,6248.574507863897,4210.911299052991,-3099.1278196635994,4219.004982396175,7040.3751574064545,6579.976332815068,5614.694796110452,6547.0996655915915,6352.223848041735,4833.8112078214945,7678.584048622532,4692.57957056949,5717.653977243524,5397.67114739669,-17998.845953690376,5924.827174136512,5817.413330078124,5773.305892944335,5638.160203632555,3343.255896317331,5821.491542615388,4955.090974506577,-15054.815693905475,-7458.486055072984,-1281.0606705515006,-2976.028542769582,2137.108852988795,-4849.998574507863,-4543.75618382504
-1445.5694901315787,-14229.88741021407,441.51356345728817,2830.467726054944,6243.429685893811,4207.272278635125,-3093.732030768143,4215.303220246968,7034.916626779656,6574.768769113641,5614.820279573139,6543.648870367752,6348.082893773128,4827.850743343955,7668.54537160773,4690.3836099725,5712.132704885382,5391.45971599378,-17994.830482884456,5921.6900875693855,5812.644958496093,5767.157203272769,5634.144732826634,3336.5425310636815,5814.464468705026,4949.946152536492,-15061.3408339651,-7457.419445640163,-1285.5153334768193,-2976.028542769582,2135.477567973889,-4850.186799701891,-4549.340197914525
-1454.4160742508736,-14239.173186452763,435.1139068603515,2823.1269434878695,6235.085035625257,4199.806012605365,-3096.492666947214,4209.217272306743,7027.324877287211,6567.804436934621,5607.35401354338,6538.127598009611,6340.804852937396,4821.262861552991,7658.255727667557,4685.176046271073,5704.917405780992,5384.369900352076,-17991.81887978001,5915.79236482319,5804.864983809621,5760.192871093749,5627.55685103567,3330.2683579294303,5807.939328645404,4943.67197940224,-15072.446120412724,-7460.556532207286,-1296.055944342362,-2986.129961515728,2134.2854750783818,-4853.198402806332,-4557.371139526366
-1461.9450820119755,-14246.200260363126,432.1023037559107,2818.8605057565787,6229.814730192485,4195.1003827546765,-3107.221503006784,4205.076318038136,7023.05843955592,6563.914449591385,5598.319204230057,6533.61019335295,6336.036481355365,4818.25125844855,7656.185250533253,4680.031224300987,5700.337259392989,5380.856363396895,-17999.347887541117,5910.02012553968,5799.280969720136,5756.49110894454,5624.231539274516,3328.51158945184,5805.743368048416,4940.7858597604845,-15080.790770681278,-7462.376042416221,-1303.333985178094,-2995.4784794857624,2134.912892391807,-4851.755342985454,-4559.3161331979845
-1466.5879701313215,-14249.58831385562,430.53376047234786,2817.3547042043583,6228.246186908922,4192.590713500977,-3120.58549178274,4202.503907053094,7021.740863197728,6562.220422845136,5589.40987837942,6529.594722547028,6333.526812101664,4816.49448997096,7657.000893040706,4674.321726748817,5697.451139751232,5378.785886262592,-18014.468644794662,5904.31062798751,5795.202757182874,5753.918697959498,5624.168797543174,3328.448847720497,5805.366917660362,4939.844733790347,-15084.3670493678,-7461.497658177425,-1304.6515615362869,-2996.356863724557,2135.603051436575,-4846.986971403423,-4556.931947406969
-1470.6661826685854,-14252.976367348116,428.5260250693873,2815.0960018760275,6226.426676699989,4188.010567112972,-3130.498685334858,4199.304078754625,7019.168452212684,6558.455918964585,5581.127969842208,6525.014576159025,6329.950533415141,4811.788860120271,7651.354137219879,4667.922070151881,5692.933735094572,5374.393965068616,-18024.75828873484,5898.287421778628,5790.3716438695,5749.150326377467,5623.227671573036,3325.6882115414264,5802.606281481289,4936.770388954564,-15086.437526502106,-7459.86637316252,-1303.8986607601767,-2993.8471944708567,2134.7246671977796,-4845.16746119449,-4556.116304899517
-1471.9837590267782,-14254.231201974968,431.035694323088,2815.0332601446853,6226.928610550729,4185.94008997867,-3130.3104601408304,4199.42956221731,7018.164584511204,6556.197216636256,5579.308459633275,6524.010708457545,6328.319248400236,4808.839998747173,7645.89560659308,4666.102559942948,5690.047615452816,5371.821554083573,-18023.440712376643,5896.969845420435,5788.489391929224,5746.201465004368,5622.788479453639,3323.8687013324934,5800.535804346988,4934.448944894891,-15087.504135934929,-7456.290094475997,-1301.9536670885586,-2991.023816560444,2133.720799496299,-4844.728269075092,-4555.426145854749
-1469.53683150442,-14252.097983109323,439.4430863229852,2820.0525986520865,6232.1989159835,4190.520236366673,-3121.150167364822,4204.825351112767,7022.05457185444,6559.522528397409,5585.833599692896,6528.967305233602,6331.958268818102,4812.290793971011,7649.660110473632,4670.745448062294,5692.620026437859,5375.146865844726,-18015.59799595883,5902.365634315892,5791.814703690377,5748.899359452096,5625.925566020765,3326.315628854852,5802.731764943976,4936.393938566509,-15089.700096531917,-7452.211881938732,-1300.2596403423108,-2987.573021336605,2134.3482168097244,-4843.159725791529,-4552.289059287623
-1469.2231228477076,-14252.53717522872,446.1564515766344,2823.9425859953226,6235.837936401366,4194.033773321854,-3114.813252499229,4208.966305381373,7025.379883615594,6562.78509842722,5592.484223215203,6533.484709890265,6335.220838847913,4815.804330926192,7654.36574032432,4675.13736925627,5695.6316295423,5378.47217760588,-18012.335425929017,5907.447714554635,5795.014531988846,5752.350154675934,5629.501844707288,3328.574331183182,5805.115950734991,4938.778124357525,-15097.480071218388,-7452.525590595445,-1303.710435566149,-2987.1965709485503,2135.7285348992596,-4845.292944657174,-4551.285191586143
-1471.8582755640932,-14257.117321616723,450.7993396959806,2823.6916190699526,6234.520360043173,4192.402488306949,-3116.319054051449,4208.840821918688,7024.877949764853,6561.906714188424,5595.495826319644,6534.237610666375,6334.781646728515,4814.988688418739,7653.487356085525,4676.015753495065,5695.819854736327,5377.782018561112,-18015.221545570774,5908.514323987458,5795.579207570929,5752.789346795333,5631.070387990851,3328.0096556010994,5805.241434197676,4938.966349551552,-15106.76584745708,-7453.466716565584,-1308.4788071481803,-2990.2709157843337,2135.9167600932874,-4848.869223343698,-4553.1674435264185
-1472.799401534231,-14261.5092428107,457.1362545615748,2822.2485592490743,6231.383273476048,4189.139918277137,-3120.58549178274,4207.5232455604955,7023.05843955592,6559.2088197406965,5598.3819459614,6533.986643741005,6333.275845176295,4812.918211284436,7651.10317029451,4675.890270032381,5695.38066261693,5375.397832770096,-18017.229280973734,5908.8907743755135,5795.202757182874,5752.412896407277,5631.5723218415915,3326.817562705592,5805.366917660362,4938.652640894839,-15110.906801725687,-7447.945444207442,-1306.345588282535,-2991.5884921425263,2134.536442003752,-4844.289076955694,-4553.418410451788
-1474.9326203998764,-14265.02277976588,451.3012735467208,2817.919379786441,6226.740385356702,4185.375414396587,-3122.7187106483857,4204.511642456056,7019.4821608693965,6555.695282785516,5601.958224647923,6532.480842188785,6331.205368041991,4810.78499241879,7649.785593936317,4676.015753495065,5694.251311452765,5372.888163516395,-18013.40203536184,5909.8946420769935,5793.383246973941,5750.907094855057,5631.007646259508,3325.625469810084,5805.178692466334,4937.836998387385,-15113.604696173416,-7437.467575073241,-1299.6322230288856,-2990.2709157843337,2134.912892391807,-4831.238796836451,-4551.410675048827
-1480.704859683388,-14267.720674213608,430.53376047234786,2811.582464920846,6222.097497237355,4182.614778217516,-3121.5893594842205,4200.998105500873,7015.654915257504,6553.875772576584,5606.475629304584,6530.912298905221,6329.950533415141,4810.345800299393,7650.914945100481,4677.960747166683,5693.9376027960525,5372.76268005371,-18001.104656018706,5912.404311330694,5792.37937927246,5749.903227153577,5631.321354916221,3325.499986347399,5805.178692466334,4937.774256656044,-15119.627902382295,-7426.4877720883005,-1294.1736924020863,-2988.890597694798,2138.551912809673,-4815.99255612022,-4549.716648302579
-1486.9162910862972,-14270.104860004623,418.29912286055713,2809.0727956671462,6219.46234452097,4181.4854270533515,-3121.212909096165,4201.123588963558,7014.8392727500495,6554.81689854672,5612.310610319438,6532.292616994757,6330.703434191251,4812.729986090409,7653.738323010894,4682.415410092001,5696.13356339304,5375.209607576068,-17981.152785451788,5917.235424644068,5794.261631212736,5751.283545243112,5633.391832050524,3325.311761153371,5806.057076705129,4938.652640894839,-15128.411744770248,-7420.401824148077,-1293.7972420140316,-2989.141564620168,2140.371423018606,-4805.702912180047,-4550.406807347347
-1493.5041728772615,-14274.434039467258,417.4207386217618,2809.7002129805715,6217.26638392398,4180.2305924265,-3124.349995663292,4202.817615709806,7015.529431794817,6556.07173317357,5615.008504767166,6534.990511442485,6331.268109773334,4814.674979762027,7655.620574951171,4686.305397435238,5698.580490915399,5377.154601247687,-17961.702848735607,5922.50573007684,5796.583075272409,5753.542247571441,5636.089726498252,3322.111932854903,5805.429659391703,4937.146839342618,-15138.073971396996,-7420.778274536133,-1297.5617458945826,-2990.898333097759,2138.0499789589326,-4802.503083881577,-4552.665509675678
-1500.0920546682255,-14279.578861437343,415.47574495014385,2810.139405099969,6215.886065834447,4179.22672472502,-3126.1067641408818,4203.131324366519,7015.843140451531,6556.385441830283,5613.439961483604,6536.11986260665,6330.954401116622,4814.549496299342,7657.000893040706,4686.744589554635,5699.647100348221,5378.095727217824,-17960.134305452044,5924.450723748458,5797.461459511204,5755.23627431769,5640.3561642295435,3319.351296675832,5803.296440526057,4933.8215275814655,-15145.853946083467,-7420.903757998818,-1299.569481297543,-2992.780585038034,2135.7285348992596,-4801.373732717413,-4554.359536421926
-1504.1075254741463,-14283.029656661183,414.59736071134864,2810.327630293996,6217.140900461297,4180.4815593518715,-3122.969677573756,4203.256807829204,7016.282332570929,6557.263826069078,5612.875285901521,6535.61792875591,6331.205368041991,4814.173045911287,7659.636045757091,4683.795728181537,5699.145166497481,5379.601528770045,-17983.66245470549,5920.623478136564,5797.2732343171765,5756.365625481856,5645.061794080232,3322.4256415116156,5803.045473600688,4933.068626805355,-15150.496834202817,-7415.633452566045,-1297.5617458945826,-2993.8471944708567,2135.3520845112043,-4798.173904418944,-4554.798728541324
-1507.4328372353,-14286.417710153679,417.3579968904194,2808.508120085064,6218.019284700092,4181.610910516036,-3119.33065715589,4201.562781082956,7015.466690063476,6557.57753472579,5612.498835513466,6532.0416500693855,6330.577950728566,4813.106436478463,7663.212324443614,4678.337197554739,5696.321788587068,5379.664270501387,-18013.08832670513,5912.592536524721,5795.4537241082435,5755.110790855006,5645.061794080232,3327.570463481702,5804.049341302169,4934.762653551603,-15155.390689247532,-7409.296537700451,-1296.6206199244448,-2994.7255787096524,2135.289342779862,-4796.668102866724,-4555.049695466692
-1513.0795930561264,-14292.252691168533,419.4284740247224,2802.8613642642367,6215.00768159565,4179.038499530992,-3122.467743723016,4195.351349680047,7011.57670272024,6554.691415084035,5606.789337961297,6524.575384039627,6327.378122430097,4809.341932597913,7664.278933876439,4671.059156719007,5691.239708348324,5376.150733546207,-18030.530528018346,5904.4361114501935,5791.940187153064,5750.530644467001,5638.222945363897,3328.950781571237,5803.484665720086,4935.578296059056,-15163.484372590716,-7408.480895192998,-1300.6360907303658,-2996.6078306499276,2135.3520845112043,-4800.3071232845905,-4555.865337974145
-1519.4165079217207,-14299.467990272922,417.8599307411594,2797.2146084434103,6210.364793476305,4174.081902754934,-3132.3809372751334,4188.575242695055,7007.686715377004,6549.923043502004,5597.629045185289,6517.862018785978,6323.801843743575,4804.761786209909,7661.204589040654,4665.161433972809,5687.4752044677725,5371.50784542686,-18035.80083345112,5899.542256405479,5788.740358854594,5746.075981541683,5628.372493543123,3327.695946944387,5802.355314555921,4935.390070865028,-15173.58579133686,-7411.116047909384,-1307.1612307899875,-2999.3684668289984,2136.73240260074,-4804.9500114039365,-4556.931947406969
-1523.1810118022715,-14305.616679944487,415.1620362934313,2795.332356503135,6207.6041572972335,4170.819332725122,-3139.4707529168377,4186.44202382941,7007.059298063577,6546.911440397563,5590.91567993164,6516.16799203973,6322.609750848067,4803.067759463661,7656.687184383994,4663.592890689247,5687.851654855828,5369.5001100239,-18034.232290167554,5899.103064286081,5788.112941541169,5745.134855571546,5621.34541963276,3326.503854048879,5802.606281481289,4935.703779521741,-15183.122534500924,-7411.429756566097,-1311.8041189093335,-3001.8153943513566,2137.4853033768495,-4803.757918508429,-4556.806463944284
-1525.188747205232,-14309.067475168327,414.0954268606085,2795.332356503135,6205.53368016293,4170.066431949012,-3134.7651230661486,4187.006699411492,7006.808331138209,6545.656605770712,5587.4648847078015,6517.17185974121,6322.045075265984,4803.255984657689,7650.789461637797,4664.4085331967,5688.981006019993,5368.621725785104,-18030.530528018346,5900.169673718903,5788.61487539191,5745.825014616313,5618.459299991005,3325.374502884714,5802.919990138003,4935.829262984425,-15191.404443038136,-7408.104444804942,-1312.4315362227587,-3004.4505470677423,2137.108852988795,-4795.162301314504,-4555.426145854749
-1527.1964826081924,-14309.192958631013,415.726711875514,2795.3950982344777,6203.400461297286,4170.505624068411,-3121.965809872276,4187.320408068204,7004.361403615851,6545.217413651314,5585.143440648128,6517.4228266665805,6320.602015445105,4802.754050806949,7644.64077196623,4665.2869174354955,5687.977138318513,5366.990440770199,-18026.07586509303,5900.169673718903,5788.238425003854,5745.636789422286,5618.1455913342925,3324.433376914576,5802.041605899208,4935.013620476972,-15197.678616172387,-7403.2733314915695,-1311.3021850585935,-3005.89360688862,2137.4853033768495,-4784.621690448961,-4555.928079705489
-1529.2669597424958,-14309.255700362355,418.6128315172697,2795.3950982344777,6201.580951088353,4169.0625642475325,-3121.4638760215353,4187.320408068204,7001.2243170487245,6544.213545949834,5584.014089483963,6517.046376278525,6319.723631206312,4800.997282329358,7641.942877518502,4666.290785136976,5686.220369840921,5365.861089606034,-18020.491851003542,5899.855965062191,5787.799232884457,5745.009372108861,5619.714134617855,3324.6843438399455,5801.539672048468,4934.448944894891,-15200.941186202199,-7397.187383551345,-1310.612026013826,-3004.262321873715,2138.175462421618,-4775.273172478926,-4556.367271824886
-1532.215821115594,-14312.455528660823,418.8010567112972,2794.95590611508,6200.388858192845,4164.796126516241,-3140.7883292750307,4187.69685845626,7000.408674541272,6542.017585352847,5584.516023334703,6517.611051860608,6319.535406012284,4799.177772120424,7643.825129458777,4666.7927189877155,5686.596820228978,5366.0493148000605,-18015.78622115285,5900.985316226356,5788.238425003854,5745.385822496915,5622.035578677528,3325.9391784667964,5803.170957063373,4935.641037790399,-15203.074405067844,-7391.164177342464,-1310.4238008197983,-3001.627169157329,2138.928363197728,-4767.430456061112,-4552.665509675678
-1537.7370934737355,-14317.600350630908,410.51914817408493,2792.634462055407,6199.1340235659945,4161.157106098375,-3157.414888080797,4186.881215948807,7001.2243170487245,6540.323558606598,5583.700380827249,6517.862018785978,6319.096213892886,4798.738580001027,7651.5423624139075,4665.788851286236,5687.914396587171,5366.927699038856,-18014.65686998869,5902.2401508532075,5789.054067511307,5746.264206735711,5623.353155035721,3326.629337511564,5805.115950734991,4937.021355879933,-15207.215359336447,-7389.219183670846,-1311.615893715306,-3002.003619545384,2138.7401380037004,-4763.854177374588,-4548.524555407072
-1545.3915846975224,-14322.682430869652,394.33178148771583,2787.677865279348,6197.000804700348,4159.714046277498,-3157.603113274825,4183.493162456312,7000.34593280993,6539.821624755858,5580.1868438720685,6515.854283383017,6317.841379266036,4799.428739045795,7663.58877483167,4663.216440301192,5687.726171393143,5367.492374620939,-18016.601863660308,5901.110799689041,5789.61874309339,5746.891624049136,5624.419764468544,3325.4372446160564,5804.551275152909,4936.707647223221,-15214.17969151547,-7390.599501760381,-1313.1844369988692,-3005.39167303788,2137.5480451081926,-4765.046270270096,-4547.646171168277
-1551.2265657123764,-14326.948868600944,383.1637533087479,2782.972235428659,6195.055811028731,4159.149370695415,-3152.395549573396,4179.4776916503915,6998.275455675625,6539.633399561832,5577.426207692999,6513.093647203947,6317.0884784899245,4800.244381553248,7672.749067607677,4661.083221435546,5687.098754079718,5367.994308471679,-18018.484115600582,5898.852097360711,5790.246160406815,5748.146458675987,5627.494109304327,3323.805959601151,5803.421923988744,4936.707647223221,-15221.583215813884,-7390.599501760381,-1313.6236291182668,-3008.152309216951,2137.5480451081926,-4766.865780479029,-4547.269720780221
-1552.1676916825143,-14329.207570929275,385.7989060251336,2782.093851189864,6195.244036222758,4159.902271471525,-3148.631045692845,4178.160115292198,6998.149972212941,6540.825492457339,5578.241850200452,6512.403488159179,6318.406054848118,4801.750183105468,7675.9488959061455,4661.396930092259,5688.16536351254,5370.00204387464,-18017.292022705074,5899.165806017423,5791.87744542172,5750.9698365864,5632.325222617701,3323.9941847951786,5804.300308227537,4939.405541670949,-15226.037878739204,-7386.960481342515,-1312.807986610814,-3007.1484415154705,2138.7401380037004,-4765.548204120836,-4544.320859407122
-1549.4070555034434,-14329.646763048671,397.46886805484166,2785.1054542943048,6197.879188939144,4163.164841501336,-3141.5412300511407,4180.1678506951575,7000.785124929327,6544.150804218492,5581.629903692948,6514.285740099454,6321.668624877929,4804.573561015882,7673.627451846473,4664.032082808645,5690.800516228926,5373.390097367135,-18013.3392936305,5902.4283760472335,5794.512598138105,5754.295148347553,5636.152468229594,3326.0646619294816,5806.245301899156,4943.1700455515,-15227.731905485452,-7382.380334954512,-1312.1178275660463,-3005.0779643811675,2139.2420718544404,-4763.226760061163,-4541.24651457134
-1545.83077681692,-14329.270312660616,407.5702868009868,2789.497375488281,6202.522077058489,4168.99982251619,-3127.863532618472,4184.936222277189,7005.490754780016,6549.483851382606,5587.841335095857,6518.614919562088,6326.248771265933,4809.0909656725435,7665.596510234631,4668.737712659334,5694.627761840819,5377.4683099044,-18006.68867010819,5907.0712641665805,5798.151618555972,5757.43223491468,5637.658269781815,3328.386105989154,5808.5667459588285,4946.495357312654,-15229.363190500359,-7379.180506656043,-1311.4276685212787,-3004.074096679687,2139.053846660413,-4760.779832538805,-4540.7445807206
-1543.0701406378491,-14327.137093794972,409.26431354723474,2793.5755880255447,6208.4197998046875,4175.901412963867,-3117.4484052156145,4191.649587530838,7011.57670272024,6556.259958367598,5598.821138080797,6525.516510009765,6331.64456016139,4815.176913612767,7656.436217458624,4676.392203883121,5700.400001124332,5382.613131874486,-17995.583383660567,5913.03172864412,5803.170957063373,5761.133997063887,5638.662137483295,3330.6448083174846,5812.205766376696,4949.820669073807,-15230.743508589894,-7375.353261044151,-1307.0357473273025,-3000.372334530479,2139.555780511153,-4753.376308240388,-4539.99167994449
-1540.6232131154911,-14322.807914332336,408.197704114412,2797.653800562808,6213.5646217747735,4181.234460127981,-3124.1617704692635,4198.6766614412,7018.039101048519,6562.345906307822,5613.1889945582325,6533.86116027832,6337.040349056845,4821.388345015675,7651.354137219879,4685.427013196443,5707.176108109323,5387.444245187859,-17980.02343428762,5920.309769479852,5808.127553839432,5765.212209601151,5640.3561642295435,3333.0289941085007,5816.221237182616,4953.271464297645,-15229.17496530633,-7368.577154059159,-1299.2557726408304,-2993.40800235146,2140.5596482126334,-4739.69861080772,-4536.4154012579675
-1537.548868279708,-14318.290509675677,411.8994662636204,2801.6065296373868,6215.697840640419,4182.238327829461,-3140.662845812345,4203.445033023231,7021.615379735043,6563.914449591385,5623.164929841692,6540.072591681229,6340.177435623971,4824.3372063887755,7650.914945100481,4691.450219405325,5710.877870258531,5388.95004674008,-17966.910412437035,5926.01926703202,5810.32351443642,5767.282686735452,5640.795356348941,3335.538663362201,5818.919131630345,4955.279199700606,-15224.594818918327,-7358.224768387643,-1292.2286987304683,-2988.012213456003,2140.9360986006886,-4724.326886628803,-4532.148963526675
-1538.2390273244755,-14319.733569496553,415.03655283074625,2801.3555627120168,6211.99607849121,4176.591572008633,-3150.576039364463,4201.625522814297,7018.039101048519,6558.142210307874,5619.776876349198,6538.441306666324,6337.66776637027,4820.008026926141,7651.793329339278,4689.066033614309,5707.427075034693,5384.8090924714725,-17970.549432854903,5924.011531629059,5807.060944406609,5764.020116705642,5637.344561125102,3336.47978933234,5817.915263928864,4952.957755640933,-15224.155626798927,-7350.256568507142,-1291.350314491673,-2988.9533394261407,2140.371423018606,-4716.797878867701,-4532.148963526675
-1544.638683921412,-14327.38806072034,412.65236703973056,2796.587191129985,6204.843521118163,4168.24692174008,-3151.077973215203,4194.347481978567,7010.070901168019,6549.546593113949,5605.283536409076,6530.0339146664255,6330.954401116622,4811.224184538189,7649.973819130346,4679.592032181588,5699.5843586168785,5377.782018561112,-17989.371952257658,5914.474788464997,5800.284837421616,5756.867559332596,5631.258613184878,3334.472053929379,5813.711567928916,4946.871807700709,-15230.86899205258,-7350.6957606265405,-1297.6872293572676,-2995.91767160516,2138.175462421618,-4722.130926031815,-4537.7957193475
-1552.1049499511716,-14335.35626060084,408.2604458457545,2792.383495130037,6199.635957416735,4162.851132844623,-3149.446688200297,4187.94782538163,7004.61237054122,6544.213545949834,5591.166646857009,6521.94023132324,6325.370387027137,4804.322594090511,7643.448679070723,4670.1180307488685,5693.435668945312,5372.072521008943,-18007.504312615645,5904.624336644222,5794.763565063476,5750.279677541632,5625.800082558079,3330.833033511513,5809.1941632722555,4941.036826685855,-15239.841059634558,-7357.283642417506,-1305.8436544317947,-3004.262321873715,2136.3559522126848,-4733.675404598838,-4545.324727108604
-1558.128156160053,-14341.253983347038,402.29998136821536,2789.7483424136512,6197.063546431691,4160.404205322266,-3151.3289401405727,4184.120579769737,7002.60463513826,6541.954843621505,5582.508287931742,6517.297343203895,6322.484267385382,4800.871798866673,7634.664836682769,4664.032082808645,5690.549549303556,5368.433500591077,-18020.052658884146,5898.475646972655,5791.751961959035,5746.264206735711,5622.161062140212,3327.5077217503595,5806.057076705129,4937.272322805304,-15248.499418559826,-7365.189100566662,-1312.494277954101,-3011.4148792467618,2137.7990120335626,-4743.337631225585,-4550.783257735402
-1562.7083025480567,-14345.081228958932,393.39065551757807,2787.301414891293,6195.745970073498,4159.651304546155,-3153.7758676629314,4181.987360904091,7002.2281847502045,6541.452909770765,5576.547823454203,6515.728799920333,6321.731366609271,4800.244381553248,7630.335657220137,4661.020479704204,5689.733906796104,5367.178665964227,-18028.64827607807,5896.216944644325,5790.87357772024,5745.072113840203,5620.592518856651,3326.1901453921664,5804.488533421566,4935.3273291336845,-15256.216651514955,-7370.961339850174,-1316.94894087942,-3017.061635067588,2140.245939555921,-4747.980519344932,-4553.1674435264185
-1562.9592694734267,-14345.081228958932,389.18695951762953,2787.175931428608,6197.565480282431,4161.847265143143,-3151.579907065943,4183.304937262284,7004.235920153164,6543.9625790244645,5573.598962081105,6518.112985711348,6324.241035862972,4803.193242926345,7633.660968981289,4661.961605674342,5691.867125661749,5369.813818680612,-18031.157945331768,5898.036454853258,5792.693087929173,5747.581783093903,5621.34541963276,3327.256754824989,5804.990467272306,4935.452812596371,-15259.228254619396,-7371.024081581517,-1316.5724904913648,-3018.8184035451786,2139.555780511153,-4746.851168180767,-4553.292926989103
-1557.8144475033407,-14341.567692003751,397.59435151752666,2791.254143965871,6202.710302252518,4166.176444605777,-3147.7526614540498,4189.328143471164,7008.753324809825,6549.232884457236,5576.296856528834,6524.13619192023,6329.8250499524565,4808.52629009046,7638.680307488691,4667.420136301141,5696.698238975122,5375.46057450144,-18026.452315481085,5903.306760286029,5796.645817003751,5752.47563813862,5623.917830617804,3329.1390067652646,5806.621752287211,4936.895872417249,-15256.718585365696,-7365.063617103978,-1312.1178275660463,-3015.36760832134,2135.9167600932874,-4740.639736777857,-4550.908741198087
-1552.6068838019119,-14338.681572361995,413.96994339792343,2796.900899786698,6207.164965177836,4168.623372128135,-3147.7526614540498,4196.480700844212,7012.58057042172,6552.934646606444,5582.884738319798,6530.222139860452,6335.220838847913,4812.541760896381,7638.743049220034,4675.011885793585,5701.278385363126,5380.291687814813,-18017.79395655581,5909.0162578382,5800.4103208843035,5756.24014201917,5626.113791214792,3330.5193248548,5806.872719212582,4937.460547999332,-15253.89520745528,-7358.9776691637535,-1309.2317079242905,-3010.661978470652,2132.7796735261613,-4732.98524555407,-4546.2031113473995
-1552.8578507272819,-14338.556088899308,418.3618645918996,2798.9713769210007,6207.4159321032075,4168.0586965460525,-3147.2507276033098,4199.743270874024,7012.957020809775,6553.122871800472,5588.656977603308,6533.171001233552,6337.793249832956,4813.545628597862,7635.229512264853,4680.407674689041,5703.34886249743,5382.173939755088,-18009.512048018605,5912.216086136666,5802.355314555921,5757.24400972065,5626.741208528217,3330.393841392115,5805.053209003649,4936.519422029192,-15254.020690917965,-7355.15042355186,-1308.3533236854953,-3008.3405344109783,2133.030640451532,-4725.644462986996,-4539.364262631065
-1557.877189234683,-14340.438340839586,401.86078924881775,2795.7715486225325,6203.400461297286,4166.176444605777,-3145.2429922003494,4197.67279373972,7010.070901168019,6550.864169472142,5591.166646857009,6532.418100457442,6337.228574250873,4812.353535702354,7631.276783190274,4681.160575465152,5702.533219989977,5381.295555516293,-18004.42996777986,5912.278827868009,5801.978864167865,5756.365625481856,5625.862824289422,3328.6998146458673,5802.292572824577,4934.69991182026,-15256.404876708983,-7350.507535432514,-1305.5926875064247,-3008.779726530376,2137.422561645508,-4718.115455225894,-4534.658632780376
-1561.3279844585215,-14342.8225266306,387.55567450272406,2793.199137637489,6200.012407804788,4164.670643053556,-3149.6349133943254,4195.41409141139,7008.753324809825,6548.981917531865,5592.860673603258,6531.602457949989,6335.722772698653,4811.977085314297,7631.904200503701,4679.842999106959,5702.031286139237,5380.417171277498,-18003.42610007838,5911.965119211297,5801.288705123096,5756.616592407226,5625.423632170024,3327.946913869757,5801.6024137798095,4933.947011044152,-15257.910678261203,-7344.735296149001,-1300.6360907303658,-3010.4110115452813,2142.2536749588808,-4711.52757343493,-4537.7957193475
-1559.5712159809311,-14342.948010093283,391.3829201146176,2795.8970320852177,6201.894659745065,4165.549027292352,-3156.787470767372,4197.610052008376,7012.07863657098,6550.111268696032,5597.629045185289,6534.237610666375,6336.4756734747625,4814.7377214933695,7641.691910593133,4680.407674689041,5704.478213661594,5382.550390143143,-18003.92803392912,5913.721887688887,5802.669023212633,5760.067387631065,5628.9371691252045,3329.2017484966073,5803.986599570826,4935.641037790399,-15256.216651514955,-7339.214023790861,-1295.1775601035667,-3010.0973028885687,2143.2575426603617,-4706.508234927528,-4543.505216899671
-1557.1242884585731,-14340.81479122764,401.42159712942015,2799.8497611597963,6206.161097476356,4167.619504426654,-3157.916821931537,4200.621655112817,7015.529431794817,6552.55819621839,5603.275801006116,6536.998246845445,6337.855991564297,4817.184649015728,7652.671713578072,4681.913476241262,5706.172240407843,5385.185542859529,-18000.602722167965,5916.3570404052725,5804.300308227537,5762.95350727282,5633.140865125154,3329.9546492727177,5806.119818436471,4937.335064536646,-15253.957949186624,-7336.2651624177615,-1291.8522483424135,-3008.277792679636,2140.8106151380034,-4704.375016061882,-4544.760051526521
-1558.943798667506,-14340.940274690323,406.0644852487664,2799.7870194284537,6206.913998252467,4166.552894993832,-3156.285536916632,4199.743270874024,7014.713789287365,6552.05626236765,5603.777734856856,6535.680670487252,6336.099223086708,4815.114171881424,7655.495091488485,4681.097833733809,5703.599829422799,5384.056191695362,-17994.014840377004,5917.235424644068,5803.359182257401,5761.4477057206,5631.7605470356175,3329.2017484966073,5805.994334973786,4936.6449054918785,-15255.463750738843,-7337.959189164009,-1292.9188577752363,-3008.2150509482926,2139.2420718544404,-4706.884685315584,-4543.191508242958
-1562.3945938913444,-14343.76365260074,406.503677368164,2797.277350174753,6205.157229774876,4163.792258814761,-3155.3444109464945,4196.7316677695835,7011.82766964561,6549.923043502004,5601.017098677785,6532.480842188785,6333.024878250924,4811.851601851613,7655.8715418765405,4679.152840062191,5699.647100348221,5381.546522441663,-17989.622919183028,5916.670749061986,5801.476930317125,5758.687069541529,5628.999910856547,3329.0762650339225,5805.429659391703,4935.076362208316,-15259.165512888052,-7340.657083611739,-1295.4912687602796,-3009.720852500513,2140.8106151380034,-4710.837414390162,-4540.932805914627
-1562.582819085372,-14345.83412973504,407.63302853232926,2796.0852572792446,6204.969004580848,4163.415808426706,-3153.7758676629314,4195.351349680047,7010.5100932874175,6549.923043502004,5602.39741676732,6531.351491024619,6331.832785355416,4811.977085314297,7661.957489816765,4678.713647942794,5698.0785570646585,5381.73474763569,-17989.246468794972,5916.733490793328,5801.163221660413,5759.43997031764,5631.948772229646,3329.7664240786894,5805.366917660362,4934.448944894891,-15262.114374261151,-7340.71982534308,-1296.7461033871296,-3011.352137515419,2141.814482839484,-4712.907891524465,-4539.427004362407
-1557.5634805779707,-14344.516553376849,417.54622208444687,2799.0968603836855,6207.855124222604,4166.803861919201,-3150.0741055137228,4198.049244127776,7012.706053884404,6552.620937949732,5610.742067035875,6533.923902009662,6333.715037295692,4815.490622269479,7671.494232980827,4680.595899883069,5700.023550736276,5384.369900352076,-17990.375819959136,5918.427517539576,5803.045473600688,5762.95350727282,5636.842627274362,3332.5270602577607,5807.876586914062,4937.335064536646,-15262.239857723836,-7338.837573402807,-1296.306911267732,-3012.293263485557,2140.3086812872634,-4712.4059576737245,-4539.489746093749
-1550.0972145482112,-14341.379466809723,435.5530989797491,2804.9945831298824,6211.117694252415,4171.070299650492,-3144.9292835436368,4203.131324366519,7016.596041227641,6555.444315860145,5620.278810199938,6537.876631084241,6336.350190012078,4818.439483642577,7674.317610891241,4683.670244718853,5702.909670378032,5386.1266688296655,-17990.124853033765,5920.4979946738795,5805.178692466334,5764.773017481753,5635.336825722142,3336.8562397203946,5813.0214088841485,4943.4210124768715,-15259.228254619396,-7336.45338761179,-1295.1775601035667,-3011.9795548288444,2138.4891710783304,-4708.641453793174,-4539.615229556433
-1549.7835058914986,-14342.885268361943,437.93728477076473,2804.2416823537724,6207.666899028577,4168.623372128135,-3145.6821843197467,4202.127456665039,7015.027497944078,6552.432712755704,5620.529777125308,6536.37082953202,6333.589553833007,4815.051430150082,7662.33394020482,4682.289926629317,5701.027418437757,5381.98571456106,-17991.630654585988,5918.3647758082325,5802.857248406661,5760.44383801912,5626.55298333419,3337.5463987651615,5815.091886018451,4946.558099043996,-15259.165512888052,-7335.135811253597,-1294.4246593274568,-3013.108905993009,2138.3636876156447,-4703.120181435032,-4540.932805914627
-1560.1986332943563,-14350.727984779758,415.47574495014385,2793.638329756887,6196.247903924239,4157.76905260588,-3157.352146349455,4192.151521381577,7005.741721705385,6542.1430688155315,5612.122385125411,6528.026179263466,6324.303777594315,4805.702912180047,7641.4409436677615,4675.011885793585,5693.623894139339,5372.5117131283405,-17996.838218287416,5911.58866882324,5795.955657958984,5752.099187750565,5617.957366140265,3333.5309279592407,5811.954799451325,4944.864072297748,-15265.125977365591,-7335.198552984941,-1293.9854672080592,-3017.312601992958,2138.614654541016,-4699.104710629112,-4544.007150750411
-1571.2411780106393,-14357.504091764747,393.7043641742906,2784.4780369808796,6187.087611148231,4147.918600785104,-3168.9593666478204,4183.555904187654,6997.397071436832,6532.982776039525,5606.161920647872,6521.5637809351865,6317.025736758583,4798.173904418944,7628.578888742546,4669.741580360814,5687.600687930458,5365.672864412006,-17996.587251362045,5907.510456285978,5791.250028108295,5747.205332705848,5616.5143063193855,3330.833033511513,5809.068679809569,4942.856336894788,-15271.525633962528,-7335.010327790912,-1293.7972420140316,-3019.8222712466586,2138.112720690275,-4698.289068121659,-4545.324727108604
-1575.8840661299855,-14360.26472794382,387.80664142809405,2783.3486858167144,6185.581809596011,4145.534414994088,-3168.5829162597647,4182.050102635433,6994.887402183131,6531.0377823679055,5604.90708602102,6520.93636362176,6316.021869057103,4796.166169015984,7628.892597399259,4670.306255942896,5686.283111572265,5364.982705367238,-17987.42695858604,5909.0162578382,5791.814703690377,5747.079849243163,5619.58865115517,3331.585934287623,5808.629487690172,4942.228919581363,-15274.913687455024,-7334.633877402857,-1296.055944342362,-3020.2614633660564,2137.610786839535,-4701.049704300729,-4545.261985377261
-1577.0134172941507,-14362.397946809464,389.8143768310546,2786.0465802644426,6187.401319804944,4147.29118347168,-3160.991166767321,4183.869612844366,6995.703044690583,6533.045517770867,5604.154185244911,6522.253939979953,6317.778637534693,4796.730844598067,7634.288386294716,4672.188507883172,5686.785045423006,5366.488506919459,-17979.70972563091,5911.525927091899,5794.010664287366,5747.77000828793,5621.282677901418,3332.9662523771585,5808.8804546155425,4941.601502267938,-15276.54497246993,-7334.633877402857,-1299.6322230288856,-3022.9593578137847,2136.544177406712,-4705.065175106651,-4546.0776278847125
-1578.0800267269735,-14366.162450690015,391.6338870399876,2787.7406070106904,6188.154220581054,4147.542150397049,-3159.171656558388,4184.998964008531,6996.079495078639,6533.86116027832,5603.024834080746,6522.37942344264,6318.217829654091,4796.542619404039,7636.735313817076,4671.874799226458,5686.471336766293,5366.112056531404,-17981.842944496555,5911.400443629214,5794.073406018708,5747.0171075118205,5620.529777125308,3331.7741594816507,5808.190295570776,4940.221184178402,-15277.737065365436,-7335.825970298365,-1301.388991506476,-3027.4767624704455,2135.1011175858343,-4707.888553017064,-4547.081495586193
-1578.5192188463711,-14368.797603406403,393.9553310996607,2788.054315667403,6188.405187506424,4146.789249620939,-3163.6890612150487,4185.124447471217,6996.079495078639,6533.10825950221,5602.962092349403,6522.128456517269,6317.7158958033515,4795.915202090614,7635.41773745888,4670.808189793636,5685.843919452867,5364.418029785155,-17990.124853033765,5910.396575927733,5793.257763511256,5745.950498078998,5619.9651015432255,3328.888039839894,5806.872719212582,4938.778124357525,-15278.80367479826,-7337.331771850586,-1300.9497993870784,-3029.045305754009,2135.603051436575,-4708.892420718544,-4546.265853078741
-1577.076159025493,-14368.609378212375,399.1628948010896,2787.1131896972647,6189.409055207904,4148.044084247789,-3164.1909950657887,4184.559771889134,6996.581428929378,6533.296484696237,5602.209191573293,6521.689264397872,6317.46492887798,4796.228910747327,7634.100161100687,4670.180772480211,5686.032144646895,5363.978837665758,-17998.344019839635,5910.271092465049,5793.445988705284,5745.636789422286,5620.84348578202,3328.0096556010994,5806.496268824527,4938.087965312757,-15279.682059037055,-7336.892579731188,-1299.443997834858,-3026.974828619705,2138.2382041529604,-4708.829678987201,-4543.630700362356
-1576.7624503687807,-14370.679855346676,405.1861010099712,2782.3448181152335,6186.836644222861,4146.9774748149675,-3167.3908233642574,4180.544301083213,6993.758051018965,6530.8495571738795,5596.311468827096,6517.799277054635,6314.453325773539,4793.656499762284,7631.151299727589,4666.4790103310015,5683.585217124537,5361.971102262797,-18007.12786222759,5907.635939748663,5791.250028108295,5743.25260363127,5619.58865115517,3328.323364257812,5804.802242078278,4935.515554327712,-15282.379953484784,-7337.394513581927,-1300.2596403423108,-3026.535636500308,2140.496906481291,-4710.774672658819,-4543.5679586310125
-1577.7035763389183,-14375.071776540652,409.9544725920024,2777.26273787649,6181.252630133376,4142.397328426963,-3182.3233554237763,4176.340605083265,6988.864195974249,6526.081185591847,5589.347136648077,6513.156388935289,6310.061404579564,4789.07635337428,7627.261312384355,4662.087089137027,5679.63248804996,5358.457565307616,-18013.59026055587,5903.934177599454,5787.297299033717,5739.990033601458,5617.455432289525,3328.8252981085525,5802.292572824577,4931.93927564119,-15284.952364469827,-7339.653215910258,-1303.083018252724,-3026.535636500308,2141.187065526058,-4711.966765554327,-4548.336330213045
-1578.7701857717411,-14376.891286749587,412.58962530838807,2775.945161518297,6177.111675864771,4139.260241859837,-3193.9933174534845,4175.838671232525,6986.229043257863,6523.947966726201,5587.590368170488,6511.901554308439,6308.743828221371,4787.633293553402,7627.261312384355,4661.898863942999,5678.879587273848,5357.830147994191,-18013.65300228721,5903.4322437487135,5785.979722675524,5740.115517064144,5619.83961808054,3330.707550048828,5802.355314555921,4930.621699282997,-15285.705265245939,-7340.594341880397,-1306.9730055959599,-3023.9004837839225,2140.3086812872634,-4709.582579763312,-4554.296794690584
-1580.1505038612763,-14375.95016077945,413.78171820389593,2777.3882213391753,6175.417649118524,4138.946533203125,-3189.8523631848784,4177.407214516087,6986.16630152652,6524.700867502313,5590.91567993164,6513.40735586066,6309.684954191508,4789.703770687705,7631.214041458931,4665.035950510125,5680.950064408151,5359.963366859837,-18008.006246466382,5906.130138196441,5787.548265959086,5743.440828825297,5626.364758140162,3333.0289941085007,5804.488533421566,4931.688308715819,-15286.458166022048,-7339.653215910258,-1311.8041189093335,-3023.398549933182,2139.493038779811,-4707.135652240952,-4555.112437198036
-1582.1582392642372,-14374.381617495887,407.5702868009868,2777.9528969212574,6175.1039404618095,4140.452334755345,-3177.2412751850325,4177.783664904142,6987.2956526906855,6526.771344636615,5595.809534976356,6515.164124338249,6310.688821892989,4793.091824180201,7635.543220921566,4668.424004002621,5683.14602500514,5362.598519576222,-17996.022575779964,5910.145609002364,5789.995193481444,5747.142590974506,5631.7605470356175,3333.342702765213,5806.182560167814,4933.69604411878,-15287.399291992184,-7337.896447432668,-1314.251046431692,-3026.410153037623,2139.179330123098,-4706.884685315584,-4549.842131765265
-1583.6012990851148,-14371.307272660104,391.94759569670015,2777.0745126824622,6176.923450670744,4144.530547292608,-3161.0539084986635,4176.46608854595,6989.366129824989,6530.975040636564,5599.009363274825,6516.042508577045,6311.943656519839,4797.107294986122,7639.119499608089,4670.4317394055815,5685.1537604081,5365.359155755294,-17983.160520854748,5913.910112882913,5792.504862735145,5749.777743690892,5632.952639931126,3332.213351601048,5806.747235749896,4935.892004715768,-15286.52090775339,-7335.575003372994,-1311.6786354466487,-3028.8570805599807,2138.928363197728,-4707.072910509611,-4545.1992436459195
-1582.0954975328943,-14365.974225495987,381.0932761744448,2778.5175725033405,6181.691822252776,4150.428270038805,-3145.7449260510894,4176.026896426552,6992.252249466745,6536.810021651418,5598.821138080797,6516.4189589651005,6314.327842310855,4800.934540598016,7642.507553100586,4670.180772480211,5687.098754079718,5368.49624232242,-17985.544706645764,5914.851238853053,5795.077273720189,5751.158061780427,5630.380228946083,3333.6564114219254,5808.064812108089,4938.715382626182,-15283.509304648947,-7332.375175074527,-1305.780912700452,-3027.5395042017885,2138.3636876156447,-4704.81420818128,-4546.140369616056
-1579.1466361597963,-14363.088105854235,380.77956751773223,2781.4036921450966,6186.334710372121,4152.8124558298205,-3147.4389527973367,4176.403346814607,6993.38160063091,6539.3196909051185,5594.491958618163,6515.164124338249,6315.519935206363,4801.499216180097,7644.452546772203,4667.169169375769,5687.16149581106,5369.625593486585,-18005.308352018656,5911.337701897872,5796.143883153011,5750.154194078947,5625.298148707339,3336.2288224069694,5809.5706136603085,4940.7858597604845,-15280.874151932563,-7328.98712158203,-1300.0086734169406,-3022.269198769017,2137.108852988795,-4700.861479106702,-4548.524555407072
-1577.9545432642883,-14364.844874331824,383.91665408485807,2782.282076383892,6187.715028461656,4149.675369262695,-3166.135988737407,4175.336737381784,6991.813057347347,6536.810021651418,5587.4648847078015,6512.340746427836,6314.0768753854845,4798.613096538344,7643.197712145354,4663.090956838507,5685.028276945414,5367.366891158254,-18021.87216909308,5906.31836339047,5794.1361477500495,5746.828882317794,5619.902359811882,3335.4131798995163,5808.629487690172,4939.405541670949,-15280.74866846988,-7327.857770417866,-1298.1264214766652,-3017.312601992958,2137.1715947201374,-4700.485028718646,-4547.646171168277
-1577.5780928762333,-14366.852609734784,386.74003199527135,2782.1565929212065,6187.777770192999,4146.851991352281,-3178.496109811883,4174.897545262385,6991.122898302579,6534.488577591745,5582.19457927503,6511.274136995014,6313.010265952662,4796.479877672697,7641.189976742392,4661.459671823602,5683.522475393193,5364.919963635896,-18023.56619583933,5904.122402793481,5791.37551157098,5744.444696526778,5617.32994882684,3331.52319255628,5804.739500346936,4935.578296059056,-15281.940761365388,-7329.928247552168,-1300.5106072676808,-3013.8618067691195,2138.677396272358,-4706.382751464843,-4545.701177496659
-1575.1939070852177,-14365.911483764647,389.37518471165697,2783.5996527420843,6188.844379625822,4148.420534635845,-3175.170798050729,4177.156247590717,6993.318858899567,6535.304220099198,5580.249585603412,6513.7838062487135,6314.453325773539,4797.734712299547,7641.62916886179,4663.090956838507,5684.275376169305,5365.108188829923,-18018.86056598864,5904.498853181537,5790.62261079487,5744.758405183489,5618.522041722347,3328.386105989154,5800.974996466385,4933.005885074012,-15282.379953484784,-7331.747757761101,-1303.333985178094,-3010.160044619912,2138.9911049290704,-4712.4059576737245,-4544.446342869808
-1571.5548866673519,-14362.899880660207,393.01420512952296,2786.1093219957847,6190.161955984016,4151.745846396998,-3166.8261477821748,4180.8580097399245,6996.393203735352,6537.060988576788,5580.626035991468,6517.67379359195,6316.649286370528,4800.55809020996,7643.825129458777,4665.4751426295215,5686.15762810958,5366.864957307514,-18017.041055779708,5904.498853181537,5791.250028108295,5746.201465004368,5620.655260587992,3327.0685296309616,5800.033870496247,4932.503951223272,-15282.31721175344,-7330.806631790963,-1303.584952103464,-3008.0895674856083,2138.426429346988,-4711.653056897615,-4543.0660247802725
-1569.5471512643912,-14359.574568899052,398.0335436369243,2788.3680243241156,6190.914856760125,4153.75358179996,-3161.5558423494035,4184.183321501079,6998.651906063681,6538.315823203639,5584.1395729466485,6520.43442977102,6318.155087922748,4802.628567344264,7646.711249100533,4666.980944181743,5687.977138318513,5368.182533665707,-18017.668473093127,5903.181276823344,5791.500995033664,5746.766140586451,5621.031710976048,3326.441112317537,5800.5985460783295,4932.503951223272,-15282.693662141495,-7328.045995611893,-1302.4556009392988,-3009.030693455746,2136.6696608693974,-4704.625982987252,-4540.49361379523
-1568.8569922196236,-14355.245389436417,406.8801277562191,2790.8149518464734,6192.420658312345,4155.573092008892,-3156.9129542300566,4186.94395768015,7000.785124929327,6540.574525531969,5590.727454737613,6521.94023132324,6320.100081594366,4804.887269672594,7652.232521458675,4668.173037077251,5690.549549303556,5370.00204387464,-18017.41750616776,5902.177409121864,5791.438253302323,5747.644524825246,5621.157194438732,3326.315628854852,5801.225963391755,4933.005885074012,-15281.438827514647,-7324.344233462685,-1302.2673757452712,-3009.971819425884,2134.1599916156965,-4695.716657136615,-4536.79185164602
-1566.347322965923,-14348.971216302167,419.30299056203734,2794.5794557270247,6196.122420461554,4159.52582108347,-3149.3839464689554,4190.332011172645,7004.675112272563,6545.656605770712,5598.444687692742,6523.88522499486,6324.052810668944,4809.153707403885,7662.773132324218,4669.929805554842,5694.37679491545,5373.892031217875,-18016.099929809567,5903.05579336066,5792.442121003803,5750.216935810289,5622.976704647665,3326.8803044369342,5802.355314555921,4934.888137014288,-15276.356747275902,-7320.51698785079,-1301.8281836258736,-3007.8386005602383,2134.661925466437,-4688.87780842028,-4533.717506810238
-1564.52781275699,-14344.202844720136,419.4284740247224,2795.9597738165603,6199.1340235659945,4163.478550158048,-3142.5450977526207,4192.026037918893,7008.251390959086,6550.487719084086,5602.64838369269,6525.077317890367,6327.942798012181,4813.106436478463,7674.1293856972125,4670.996414987664,5697.011947631835,5377.342826441713,-18015.15880383943,5904.247886256168,5793.445988705284,5752.538379869961,5625.737340826737,3327.131271362304,5803.170957063373,4936.519422029192,-15270.584507992393,-7318.132802059776,-1298.7538387900904,-3004.199580142372,2138.426429346988,-4685.740721853155,-4531.960738332648
-1567.5394158614308,-14344.516553376849,401.42159712942015,2792.5089785927216,6198.318381058541,4163.729517083419,-3141.2902631257707,4189.579110396536,7007.937682302374,6551.240619860197,5599.825005782277,6523.446032875462,6328.821182250976,4813.608370329204,7679.399691129984,4669.867063823498,5696.321788587068,5377.53105163574,-18015.09606210809,5903.369502017372,5792.504862735145,5752.099187750565,5628.184268349095,3325.499986347399,5801.978864167865,4935.954746447112,-15269.141448171513,-7318.446510716486,-1293.7972420140316,-3002.631036858809,2140.496906481291,-4685.489754927786,-4531.082354093853
-1570.739244159899,-14345.583162809671,390.88098626387745,2791.254143965871,6198.067414133172,4163.039358038651,-3143.3607402600737,4188.575242695055,7007.373006720291,6550.801427740799,5597.0643696032075,6523.508774606805,6329.511341295744,4813.357403403834,7680.4035588314655,4670.243514211554,5695.819854736327,5377.280084710372,-18012.586392854388,5903.05579336066,5792.191154078433,5751.597253899825,5630.380228946083,3323.9941847951786,5801.163221660413,4935.578296059056,-15271.023700111788,-7319.450378417968,-1289.342579088713,-3002.5055533961245,2139.8067474365234,-4686.054430509868,-4529.513810810289
-1569.6726347270762,-14345.081228958932,399.10015306974714,2794.893164383737,6200.451599924188,4163.855000546104,-3146.8742772152546,4191.963296187551,7009.192516929224,6551.55432851691,5599.511297125565,6527.336020218698,6331.707301892731,4813.608370329204,7677.454697458366,4673.568825972708,5697.074689363178,5377.97024375514,-18007.62979607833,5905.06352876362,5793.445988705284,5752.224671213249,5630.066520289371,3323.7432178698086,5801.85338070518,4936.582163760536,-15273.156918977435,-7320.391504388105,-1288.5896783126027,-3002.8820037841792,2139.2420718544404,-4687.8739407188,-4529.702036004317
-1567.6648993241158,-14346.398805317123,407.8212537263569,2797.026383249383,6201.831918013721,4164.356934396844,-3150.199588976408,4194.221998515882,7009.757192511307,6551.617070248251,5600.13871443899,6529.7202060097125,6332.209235743472,4812.667244359066,7666.223927548056,4675.38833618164,5697.200172825863,5376.966376053659,-18005.559318944026,5905.941913002415,5793.696955630653,5751.659995631168,5626.113791214792,3322.9275753623556,5801.414188585783,4936.770388954564,-15275.227396111735,-7321.646339014956,-1291.162089297646,-3004.5760305304275,2139.555780511153,-4691.952153256065,-4533.968473735608
-1566.1590977718954,-14349.53589188425,407.44480333830177,2795.646065159848,6201.580951088353,4164.6079013222125,-3149.50942993164,4193.5945812024565,7008.753324809825,6551.366103322882,5595.809534976356,6528.528113114206,6330.766175922594,4811.851601851613,7653.801064742239,4674.572693674188,5696.008079930355,5375.3350910387535,-18006.87689530222,5904.56159491288,5793.257763511256,5750.154194078947,5621.721870020816,3321.609999004163,5799.720161839536,4935.703779521741,-15275.729329962478,-7320.76795477616,-1291.9777318050983,-3006.019090351305,2139.2420718544404,-4694.08537212171,-4538.799587048982
-1563.2729781301396,-14349.724117078278,405.8135183233964,2795.1441313091073,6202.02014320775,4166.552894993832,-3146.4350850958567,4193.531839471114,7008.690583078484,6552.369971024362,5592.986157065943,6527.524245412726,6330.577950728566,4813.357403403834,7648.468017578125,4674.698177136873,5696.008079930355,5375.774283158151,-18006.312219720137,5904.122402793481,5794.261631212736,5750.405161004317,5620.467035393965,3321.233548616108,5798.5908106753695,4935.201845671001,-15272.654985126692,-7315.434907612046,-1288.5896783126027,-3003.88587148566,2138.300945884303,-4689.693450927733,-4539.489746093749
-1559.6339577122735,-14346.336063585783,406.1272269801089,2796.900899786698,6202.459335327148,4168.372405202765,-3144.4273496928963,4193.971031590511,7008.565099615799,6552.55819621839,5594.115508230108,6527.273278487355,6331.268109773334,4814.800463224712,7645.456414473683,4675.764786569695,5696.2590468557255,5376.840892590974,-18003.42610007838,5905.000787032277,5795.328240645558,5751.283545243112,5621.596386558131,3320.8570982280526,5797.58694297389,4934.888137014288,-15268.639514320772,-7308.4078337016845,-1285.5780752081619,-2999.431208560341,2136.23046875,-4681.7252510472335,-4536.101692601253
-1558.3163813540807,-14343.638169138052,406.37819390547907,2797.7792840254933,6201.392725894325,4167.5567626953125,-3139.53349464818,4193.155389083059,7007.184781526264,6550.613202546771,5596.374210558439,6526.2066690545325,6330.703434191251,4814.549496299342,7639.495949996144,4675.262852718955,5695.506146079615,5376.6526673969465,-18001.543848138106,5904.812561838249,5794.575339869449,5751.032578317742,5622.2865456028985,3319.4140384071748,5796.394850078382,4932.94314334267,-15267.008229305868,-7304.580588089791,-1285.8917838648745,-2997.109764500668,2133.2816073769013,-4675.200110987613,-4533.27831469084
-1559.1320238615335,-14343.136235287311,408.0094789203844,2797.7165422941507,6200.639825118215,4166.4274115311455,-3134.2004474840664,4192.527971769634,7007.122039794921,6550.236752158717,5598.193720767372,6525.830218666478,6330.3269838031965,4814.674979762027,7634.4766114887425,4674.13350155479,5695.568887810958,5377.280084710372,-17999.975304854543,5904.56159491288,5794.261631212736,5751.910962556537,5624.607989662572,3318.472912437037,5796.143883153011,4930.119765432257,-15266.882745843182,-7305.0825219405315,-1286.581942909642,-2998.6783077842306,2133.7835412276418,-4671.7493157637755,-4533.842990272923
-1559.3202490555611,-14343.136235287311,412.4641418457031,2798.5321848016038,6202.082884939093,4166.490153262489,-3139.721719842208,4194.159256784539,7009.255258660567,6552.683679681074,5599.762264050935,6527.775212338095,6331.770043624074,4816.5572317023025,7634.351128026057,4675.011885793585,5698.204040527343,5380.22894608347,-17996.46176789936,5907.384972823293,5797.210492585834,5755.612724705746,5631.7605470356175,3319.1630714818048,5797.147750854491,4929.17863946212,-15265.502427753647,-7306.023647910669,-1283.6330815365438,-3000.497817993164,2138.928363197728,-4669.616096898128,-4533.968473735608
-1558.2536396227383,-14342.508817973889,417.797189009817,2799.9752446224807,6204.278845536081,4166.615636725174,-3150.9524897525175,4196.9198929636095,7012.07863657098,6554.691415084035,5602.773867155375,6531.100524099249,6333.840520758376,4818.564967105262,7637.739181518554,4677.584296778628,5702.094027870579,5383.805224769993,-17993.88935691432,5912.780761718749,5802.10434763055,5760.1301293624065,5638.850362677323,3321.421773810135,5799.218227988795,4931.43734179045,-15262.930016768603,-7304.643329821134,-1278.2372926410872,-2999.180241634971,2142.504641884251,-4668.361262271278,-4530.517678511769
-1557.9399309660257,-14342.634301436572,420.36959999486015,2799.6615359657685,6204.969004580848,4166.113702874433,-3153.148450349506,4198.049244127776,7012.83153734709,6553.499322188527,5605.9109537225,6532.920034308182,6334.279712877776,4818.0630332545215,7641.566427130447,4678.839131405479,5703.599829422799,5384.558125546104,-17996.524509630704,5915.917848285875,5804.990467272306,5761.259480526573,5637.53278631913,3325.1862776906864,5801.790638973838,4934.574428357576,-15261.926149067123,-7303.51397865697,-1275.7276233873868,-2997.17250623201,2141.6889993767986,-4671.623832301088,-4526.753174631219
-1560.324116757041,-14344.955745496247,419.5539574874074,2796.273482473273,6203.400461297286,4164.733384784899,-3146.5605685585415,4196.480700844212,7010.447351556074,6550.174010427374,5606.601112767269,6532.229875263414,6332.522944400184,4814.863204956054,7643.88787119012,4677.521555047286,5701.905802676552,5381.672005904347,-18001.920298526158,5915.164947509765,5803.986599570826,5757.934168765419,5628.81168566252,3328.8252981085525,5803.10821533203,4935.641037790399,-15264.749526977535,-7305.835422716643,-1278.7392264918276,-2997.4862148887228,2138.802879735043,-4680.658641614412,-4526.878658093904
-1563.4612033241672,-14348.657507645456,418.92654017398235,2792.759945518092,6201.204500700297,4162.851132844623,-3141.8549387078533,4194.786674097964,7007.749457108345,6547.727082905016,5606.977563155324,6531.85342487536,6330.8289176539365,4812.290793971011,7644.2643215781745,4676.831396002518,5700.400001124332,5378.660402799906,-18002.98690795898,5915.164947509765,5802.480798018605,5754.671598735608,5620.906227513362,3331.52319255628,5803.484665720086,4935.766521253084,-15269.706123753596,-7309.725410059877,-1283.1311476858036,-2998.6783077842306,2136.6069191380548,-4689.88167612176,-4531.01961236251
-1565.8453891151828,-14353.488620958828,417.54622208444687,2789.999309339021,6198.569347983912,4160.153238396895,-3145.870409513774,4193.971031590511,7005.616238242701,6545.656605770712,5607.5422387374065,6531.916166606702,6329.448599564401,4810.659508956105,7642.946745219982,4677.835263703998,5699.960809004933,5376.715409128289,-17999.536112735143,5916.8589742560125,5802.606281481289,5753.542247571441,5617.894624408922,3333.4681862278985,5804.049341302169,4935.954746447112,-15274.976429186368,-7311.795887194181,-1285.3271082827919,-2999.995884142424,2136.920627794768,-4693.395213076942,-4536.72910991468
