Fp1,Fp2,F7,F3,Fz,F4,F8,FC3,FCz,FC4,T7,C3,Cz,C4,T8,CP3,CPz,CP4,P7,P3,Pz,P4,P8,O1,Oz,O2,VPVA,VNVB,HPHL,HNHR,Erbs,OrbOcc,Mass
-1311.3021850585935,-14509.966498927064,331.21359975714427,2712.826979787726,6300.775628340871,4167.368537501285,-3291.807676616468,4251.442457500257,7182.547920628597,6622.703451859323,5554.52547575298,6674.214413291529,6601.6849718595795,4852.3827602988795,7806.200730173209,4756.199686150801,5764.710275750411,5440.461008172286,-17979.646983899565,6053.071273000616,5898.726613898026,5888.750678614566,5752.1619294819075,3231.952064915707,5913.721887688887,5005.97451862536,-15120.443544889747,-7570.85649590743,-1363.8797559236225,-2887.6881850393193,2263.2824747185955,-4445.879082930715,-4490.300228721217
-1315.1294306704872,-14513.60551934493,321.9905652497944,2708.9369924444895,6294.689680400647,4162.28645726254,-3295.007504914936,4247.615211888362,7177.340356927169,6618.374272396689,5548.439527812757,6670.76361806769,6597.794984516344,4848.367289492958,7802.436226292659,4755.258560180663,5761.133997063887,5437.700371993215,-17980.27440121299,6051.502729717054,5897.032587151778,5886.554718017577,5749.965968884919,3229.6306208560336,5911.714152285927,5004.092266685084,-15124.898207815068,-7571.483913220856,-1367.3305511474607,-2886.307866949784,2264.0353754947055,-4442.867479826275,-4490.300228721217
-1319.5840935958058,-14517.871957076222,317.97509444387333,2704.4195877878287,6287.348897833573,4156.137767590974,-3297.956366288034,4242.972323769017,7171.254408986944,6612.602033113178,5541.53793736508,6665.807021291632,6592.587420814915,4843.47343444824,7797.354146053915,4752.560665732935,5756.553850675883,5433.308450799239,-17985.73293183979,6047.612742373817,5893.519050196597,5883.543114913136,5747.832750019274,3227.0582098709906,5908.451582256116,5001.51985570004,-15128.537228232932,-7580.581464265521,-1370.7813463712992,-2889.884145636307,2266.2313360916937,-4444.624248303865,-4495.319567228617
-1322.0937628495064,-14520.005175941867,317.97509444387333,2702.098143728156,6282.32955932617,4152.247780247738,-3299.33668437757,4239.960720664576,7167.991838957133,6608.523820575913,5537.585208290501,6663.109126843903,6589.199367322419,4841.340215582596,7793.526900442022,4750.67841379266,5754.859823929635,5430.422331157483,-17990.18759476511,6045.2285565828015,5891.762281719007,5882.790214137027,5747.519041362561,3226.493534288908,5907.134005897923,5001.143405311986,-15129.603837665756,-7589.679015310186,-1373.3537573563424,-2896.4092856959287,2266.0431108976663,-4449.580845079923,-4500.401647467362
-1324.0387565211245,-14520.31888459858,319.0417038766961,2701.9726602654705,6281.011982967978,4151.3066542776005,-3299.775876496967,4239.145078157122,7167.740872031764,6607.582694605777,5536.644082320362,6663.109126843903,6588.446466546309,4841.90489116468,7791.268198113693,4750.301963404605,5756.051916825143,5430.422331157483,-17990.94049554122,6045.855973896227,5892.703407689144,5884.233273957904,5749.589518496864,3227.371918527703,5908.137873599403,5002.9629155209195,-15130.858672292607,-7589.490790116159,-1377.431969893606,-2902.746200561523,2264.2236006887333,-4453.031640303761,-4502.158415944952
-1326.8621344315377,-14520.381626329923,319.0417038766961,2702.4118523848683,6281.388433356034,4151.996813322368,-3300.59151900442,4239.082336425781,7168.117322419817,6608.398337113229,5536.769565783048,6663.673802425986,6588.634691740336,4842.720533672132,7789.950621755499,4749.800029553865,5757.369493183336,5431.865390978361,-17990.124853033765,6046.922583329048,5893.770017121968,5885.61359204744,5752.412896407277,3227.5601437217306,5908.953516106856,5003.904041491056,-15133.493825008993,-7584.7224185341265,-1381.6356658935545,-2908.392956382349,2264.5373093454455,-4453.910024542557,-4502.472124601665
-1326.6111675061677,-14517.934698807563,320.42202196623145,2704.356846056486,6284.2118112664475,4154.56922430741,-3301.09345285516,4240.588137978001,7169.999574360094,6610.845264635587,5538.5263342606395,6665.430570903576,6590.5796854119535,4844.665527343749,7791.707390233089,4750.364705135948,5759.189003392269,5434.437801963404,-17988.681793212887,6048.302901418585,5895.08759348016,5887.244877062345,5755.8009498997735,3227.685627184416,5909.518191688939,5004.468717073139,-15133.305599814965,-7582.08726581774,-1381.1964737741569,-2909.7105327405425,2265.6039187782685,-4453.9727662739,-4500.464389198704
-1321.1526368793686,-14512.664393374793,325.50410220497525,2708.68602551912,6290.235017475328,4159.212112426758,-3300.3405520790498,4244.917317440635,7174.705204210783,6615.362669292249,5543.608414499383,6669.697008634867,6595.159831799958,4848.618256418328,7797.542371247942,4753.752758628443,5763.329957660875,5438.265047575297,-17986.611316078586,6051.565471448395,5898.036454853258,5890.068254972758,5758.6243278101865,3229.003203542609,5911.274960166529,5006.225485550729,-15127.847069188167,-7579.703080026725,-1375.9261683413856,-2904.314743845086,2265.666660509611,-4453.3453489604735,-4495.884242810701
-1314.6274968197467,-14508.837147762899,330.02150686163645,2712.2623042056434,6295.944515027497,4163.980484008789,-3297.579915899979,4249.434722097296,7179.850026180869,6619.88007394891,5550.25903802169,6673.900704634816,6599.489011262592,4852.3827602988795,7803.69106091951,4757.642745971679,5767.721878854852,5441.590359336451,-17985.105514526364,6054.765299746864,5900.797091032328,5892.452440763774,5757.934168765419,3229.818846050061,5912.780761718749,5007.292094983552,-15121.510154322572,-7576.126801340201,-1371.7852140727791,-2897.7896037854644,2265.2274683902137,-4453.721799348529,-4493.562798751028
-1310.361059088456,-14508.146988718132,330.1469903243215,2713.3916553698086,6298.893376400595,4167.807729620682,-3292.748802586605,4251.944391350997,7183.3635631360485,6623.205385710064,5554.9646678723775,6676.159406963146,6602.249647441663,4855.331621671978,7806.95363094932,4760.215156956721,5770.545256765265,5443.8490616647805,-17984.917289332338,6056.459326493112,5901.989183927836,5893.832758853308,5755.9891750938,3229.442395662006,5912.906245181433,5007.22935325221,-15117.933875636048,-7573.554390355159,-1370.9695715653268,-2895.4054179944487,2264.098117226048,-4455.604051288805,-4494.692149915193
-1307.9141315660977,-14508.084246986788,328.32748011538854,2713.7681057578634,6300.1482110274455,4171.446750038548,-3285.4707617508734,4253.199225977847,7185.308556807668,6626.028763620477,5555.403859991776,6677.163274664627,6604.822058426706,4858.531449970445,7808.396690770199,4761.971925434313,5772.302025242855,5445.856797067742,-17984.72906413831,6057.3377107319075,5902.742084703947,5895.338560405529,5756.616592407226,3228.877720079924,5912.52979479338,5007.417578446237,-15116.051623695772,-7573.617132086502,-1370.9695715653268,-2894.840742412366,2262.3413487484577,-4455.792276482833,-4496.762627049496
-1308.1650984914677,-14508.460697374843,326.19426124974296,2712.952463250411,6298.579667743882,4173.015293322112,-3281.2670657509248,4252.509066933079,7184.6811394942415,6626.907147859271,5550.886455335114,6676.222148694489,6605.8259261281855,4860.099993254009,7808.145723844828,4761.720958508943,5771.67460792943,5445.7940553364,-17984.415355481597,6056.64755168714,5901.738217002467,5895.715010793585,5757.557718377364,3227.8111106471006,5910.961251509816,5006.601935938785,-15116.365332352487,-7577.56986116108,-1372.349889654862,-2892.7075235467205,2261.8394148977177,-4454.851150512694,-4498.393912064401
-1311.8668606406764,-14510.782141434518,322.99443295127463,2709.564409757915,6293.56032923648,4169.940948486328,-3287.2902719598064,4248.932788246556,7180.791152151007,6623.707319560803,5544.361315275492,6672.394903082596,6602.877064755087,4857.339357074938,7804.757670352333,4758.709355404502,5767.972845780221,5442.217776649876,-17984.415355481597,6053.510465120014,5897.660004465203,5892.703407689144,5755.173532586348,3225.113216199373,5907.510456285978,5002.9629155209195,-15119.878869307668,-7583.2166169819075,-1375.4242344906454,-2890.009629098992,2263.031507793225,-4453.9727662739,-4499.209554571854
-1316.2587818346524,-14512.413426449422,320.1710550408614,2705.8626476087065,6288.729215923108,4165.172576904297,-3296.387823004471,4245.105542634662,7176.461972688373,6619.2526566354845,5541.224228708367,6668.442174008017,6598.485143561112,4852.696468955592,7800.679457815068,4755.44678537469,5763.9573749743,5437.8258554559,-17983.41148778012,6049.871444702148,5893.017116345856,5887.746810913085,5750.8443531237135,3222.5408052143293,5904.05966106214,4998.320027401573,-15122.70224721808,-7585.851769698291,-1377.1810029682358,-2889.507695248252,2263.847150300678,-4451.400355288856,-4500.08793881065
-1318.8311928196956,-14512.162459524052,319.22992907072364,2704.1686208624587,6286.972447445517,4163.2275832326795,-3298.08184975072,4243.474257619757,7174.077786897356,6617.495888157894,5542.918255454615,6666.4971803364,6596.0382160387535,4849.684865851151,7799.23639799419,4753.690016897101,5761.635930914627,5435.441669664884,-17981.591977571185,6047.926451030529,5890.695672286183,5883.794081838507,5747.832750019274,3222.0388713635894,5902.679342972604,4995.433907759816,-15122.827730680763,-7586.353703549032,-1377.557453356291,-2891.70365584524,2263.9098920320207,-4449.204394691868,-4501.342773437499
-1319.5840935958058,-14511.723267404655,319.7946046528063,2704.1686208624587,6288.164540341025,4164.6079013222125,-3294.6937962582238,4243.348774157072,7173.8895617033295,6618.562497590717,5543.859381424752,6665.99524648566,6595.2225735313,4849.057448537726,7800.742199546413,4752.497924001593,5760.506579750462,5434.814252351458,-17981.278268914473,6047.487258911132,5890.444705360814,5882.288280286286,5747.330816168534,3222.5408052143293,5902.867568166632,4994.931973909076,-15122.074829904655,-7587.859505101253,-1378.3103541324012,-2894.715258949681,2264.4745676141038,-4450.459229318719,-4502.34664113898
-1317.70184165553,-14510.154724121092,322.304273906507,2706.176356265419,6292.117269415604,4168.372405202765,-3292.5605773925777,4244.980059171978,7175.897297106289,6621.950551083212,5542.416321603875,6666.748147261769,6596.22644123278,4850.814217015316,7804.443961695619,4752.246957076223,5760.694804944489,5435.943603515624,-17982.28213661595,6048.1774179559,5891.699539987664,5883.417631450452,5749.0248429147805,3223.79563984118,5903.683210674085,4996.50051719264,-15120.380803158407,-7589.428048384816,-1378.059387207031,-2895.6563849198187,2264.3490841514185,-4453.910024542557,-4501.9074490195835
-1313.2471787302115,-14506.641187165911,326.63345336914057,2710.380052265368,6297.889508699115,4173.078035053452,-3291.4312262284125,4248.681821321185,7180.038251374896,6626.405214008531,5543.357447574012,6669.697008634867,6599.551752993934,4854.014045313785,7809.526041934365,4754.129209016498,5762.828023810135,5438.704239694695,-17981.152785451788,6050.498862015573,5894.460176166735,5886.1782676295215,5752.1619294819075,3227.1209516023328,5905.628204345702,4999.574862028423,-15116.365332352487,-7588.424180683336,-1376.0516518040706,-2892.895748740748,2262.843282599198,-4457.109852841026,-4498.331170333059
-1309.4826748496607,-14503.88055098684,330.1469903243215,2714.081814414576,6302.281429893092,4175.964154695209,-3288.0431727359164,4251.756166156969,7183.61453006142,6629.228591918944,5546.745501066508,6672.95957866468,6602.68883956106,4856.14726417943,7813.290545814915,4756.387911344828,5764.835759213096,5440.900200291683,-17978.078440616,6053.134014731959,5896.718878495065,5888.311486495168,5754.797082198293,3231.136422408254,5907.698681480006,5002.147273013466,-15112.412603277908,-7584.28322641473,-1374.4203667891652,-2888.9430196661697,2261.4629645096625,-4459.368555169356,-4494.503924721164
-1309.0434827302631,-14504.570710031609,330.46069898103406,2714.5837482653164,6302.6578802811455,4175.901412963867,-3284.215927124023,4251.693424425625,7183.802755255448,6629.103108456259,5548.878719932153,6673.712479440789,6603.253515143143,4855.331621671978,7813.729737934312,4756.827103464227,5764.2710836310125,5440.272782978258,-17975.81973828767,6053.510465120014,5896.09146118164,5887.4958439877155,5755.110790855006,3233.3323830052423,5908.263357062088,5002.147273013466,-15113.040020591332,-7581.648073698344,-1375.1732675652754,-2887.876410233346,2261.964898360403,-4462.066449617084,-4495.194083765933
-1311.4276685212787,-14507.958763524104,327.51183760793583,2711.885853817588,6299.8345023707325,4173.830935829564,-3283.525768079256,4249.622947291324,7181.669536389802,6627.158114784642,5548.627753006784,6672.081194425883,6601.308521471525,4853.135661074989,7811.784744262694,4756.387911344828,5762.263348228053,5437.8258554559,-17974.125711541426,6052.569339149876,5893.393566733912,5884.860691271329,5753.542247571441,3234.148025512695,5908.137873599403,5000.26502107319,-15118.373067755447,-7585.28709411621,-1379.0005131771688,-2890.009629098992,2263.345216449938,-4465.830953497635,-4498.644878989771
-1314.1883047003491,-14510.59391624049,323.30814160798724,2708.497800325092,6296.822899266293,4171.634975232576,-3285.2197948255034,4247.9916622764185,7180.038251374896,6624.773928993625,5548.188560887385,6670.449909410978,6598.798852217824,4852.069051642166,7809.212333277651,4756.387911344828,5761.133997063887,5435.8808617842815,-17969.984757272818,6052.381113955848,5891.574056524978,5883.166664525082,5751.597253899825,3235.402860139545,5908.765290912828,4998.445510864257,-15123.894340113588,-7592.627876683283,-1383.7061430278575,-2891.829139307925,2264.8510180021585,-4468.7798148707325,-4500.338905736019
-1314.1883047003491,-14509.715532001695,321.3004062050267,2707.493932623612,6295.881773296155,4171.634975232576,-3286.0981790642986,4247.803437082392,7179.599059255499,6624.209253411544,5548.753236469469,6669.947975560238,6597.669501053659,4852.821952418277,7808.020240382142,4757.203553852281,5761.259480526573,5435.567153127568,-17964.965418765416,6053.259498194644,5892.013248644376,5882.978439331054,5750.781611392372,3237.787045930561,5910.2083507337065,4997.629868356805,-15124.145307038956,-7596.204155369808,-1384.8982359233653,-2890.637046412417,2266.419561285721,-4466.9603046618,-4498.519395527086
-1311.9296023720187,-14506.264736777855,322.7434660259046,2709.2507011012026,6296.571932340921,4173.956419292249,-3284.7178609747634,4248.305370933131,7179.473575792814,6625.966021889134,5547.561143573961,6670.073459022923,6598.1714349044,4854.704204358552,7809.212333277651,4758.081938091077,5761.635930914627,5436.82198775442,-17962.706716437086,6053.94965723941,5893.142599808541,5883.480373181794,5751.283545243112,3241.049615960372,5912.278827868009,4998.131802207545,-15119.627902382295,-7592.753360145971,-1381.698407624897,-2887.4999598452914,2266.7960116737763,-4460.121455945467,-4494.190216064452
-1310.298317357113,-14503.002166748043,326.319744712428,2711.948595548931,6298.51692601254,4176.779797202662,-3281.8944830643495,4249.497463828639,7180.540185225636,6628.601174605519,5546.369050678452,6671.140068455746,6599.990945113332,4856.962906686882,7811.972969456721,4759.39951444927,5762.70254034745,5438.892464888721,-17961.32639834755,6055.329975328947,5894.209209241364,5884.170532226562,5752.412896407277,3244.8768615722647,5915.353172703793,4999.888570685135,-15115.73791503906,-7587.232087787827,-1377.557453356291,-2885.617707905016,2265.9176274349807,-4453.9727662739,-4490.551195646587
-1311.0512181332235,-14501.810073852535,329.01763916015614,2713.4543971011512,6300.3364362214725,4177.595439710114,-3280.953357094212,4250.564073261461,7181.481311195776,6629.605042307,5546.682759335166,6671.8302275005135,6601.308521471525,4857.0256484182255,7812.851353695519,4759.964190031353,5763.078990735505,5439.143431814093,-17961.200914884867,6056.459326493112,5894.271950972707,5883.229406256424,5752.1619294819075,3247.386530825966,5917.298166375411,5000.892438386615,-15115.73791503906,-7586.981120862458,-1377.3064864309208,-2886.872542531866,2264.662792808131,-4454.286474930612,-4491.241354691354
-1313.309920461554,-14502.939425016702,328.39022184673104,2712.5132711310134,6300.399177952816,4175.524962575812,-3283.525768079256,4249.560205559981,7180.728410419664,6627.346339978669,5545.05147432026,6670.575392873663,6600.241912038702,4853.5748531943855,7811.094585217927,4758.207421553761,5761.259480526573,5436.069086978308,-17964.777193571386,6055.706425717001,5892.766149420488,5880.029577957956,5749.777743690892,3247.0728221692534,5916.29429867393,4999.198411640367,-15118.310326024104,-7593.443519190736,-1380.6945399234169,-2889.821403904965,2263.6589251066507,-4460.49790633352,-4496.009726273385
-1315.505881058542,-14505.825544658457,323.68459199604234,2709.6271514892574,6298.767892937911,4172.074167351972,-3286.976563303094,4246.987794574938,7179.222608867443,6623.707319560803,5541.475195633737,6668.818624396073,6597.732242785,4848.93196507504,7808.647657695568,4756.011460956774,5758.6243278101865,5431.677165784334,-17968.918147839995,6054.890783209549,5890.695672286183,5876.64152446546,5746.515173661081,3245.629762348376,5913.721887688887,4996.249550267269,-15120.004352770353,-7601.474460802579,-1383.7688847592,-2891.70365584524,2262.968766061883,-4467.838688900596,-4500.401647467362
-1315.8195897152548,-14507.89602179276,317.97509444387333,2707.2429656982417,6297.26209138569,4170.3801406057255,-3288.419623123972,4245.231026097347,7178.783416748046,6621.7623258891845,5540.847778320312,6668.944107858758,6596.477408158151,4846.736004478053,7807.330081337376,4755.948719225431,5757.557718377364,5429.230238261976,-17969.48282342208,6056.333843030427,5889.8172880473885,5875.323948107266,5744.632921720805,3245.316053691663,5912.341569599352,4995.120199103104,-15119.439677188268,-7605.929123727898,-1384.2080768785977,-2891.5154306512127,2261.9021566290603,-4471.791417975174,-4500.840839586759
-1312.4315362227587,-14505.951028121144,316.97122674239307,2708.058608205695,6298.642409475226,4172.638842934056,-3286.4746294523534,4246.925052843595,7180.979377345034,6623.330869172748,5547.623885305304,6672.143936157226,6598.3596600984265,4848.869223343698,7808.710399426912,4759.085805792557,5759.690937243009,5430.547814620168,-17965.78106127287,6060.725764224403,5891.762281719007,5877.1434583162,5745.825014616313,3247.010080437911,5914.0355963456,4997.190676237407,-15117.118233128596,-7604.046871787622,-1380.7572816547593,-2888.9430196661697,2261.3374810469777,-4470.9130337363795,-4498.519395527086
-1307.349455984015,-14501.810073852535,319.7318629214638,2710.3173105340247,6301.403045654296,4176.152379889237,-3283.463026347913,4250.062139410721,7183.3635631360485,6626.154247083161,5559.73303945441,6675.46924791838,6601.371263202867,4852.3827602988795,7810.969101755241,4763.226760061163,5762.828023810135,5433.0574838738685,-17961.200914884867,6064.929460224352,5895.150335211502,5879.90409449527,5747.832750019274,3248.829590646844,5916.921715987355,5000.01405414782,-15115.23598118832,-7599.403983668277,-1376.1771352667556,-2885.680449636359,2262.2786070171155,-4467.650463706568,-4497.201819168893
-1306.7847804019325,-14501.559106927167,319.4181542647512,2708.5605420564348,6300.1482110274455,4175.023028725072,-3284.5296357807356,4249.121013440584,7181.230344270404,6625.024895918996,5566.132696051345,6673.900704634816,6600.492878964072,4852.006309910824,7809.651525397049,4763.226760061163,5762.388831690738,5432.241841366416,-17962.26752431769,6063.925592522872,5895.275818674188,5879.213935450504,5746.577915392423,3248.7041071841586,5917.172682912726,4999.951312416478,-15117.431941785308,-7600.345109638414,-1377.3064864309208,-2886.621575606496,2263.7216668379933,-4467.713205437911,-4499.335038034539
-1312.6825031481287,-14506.578445434568,314.64978268271994,2702.286368922183,6293.874037893193,4168.99982251619,-3289.235265631424,4243.286032425729,7175.771813643605,6620.068299142938,5555.7803103798315,6667.50104803788,6595.097090068616,4848.2418060302725,7805.573312859786,4757.830971165707,5758.812553004214,5428.540079217208,-17970.863141511614,6057.65141938862,5891.574056524978,5875.8886236893495,5742.687928049188,3247.3237890946234,5915.29043097245,4997.316159700092,-15123.894340113588,-7606.682024504008,-1383.51791783383,-2892.1428479646374,2262.90602433054,-4471.41496758712,-4502.158415944952
-1319.7723187898334,-14511.59778394197,310.06963629471625,2697.2042886834392,6288.227282072368,4163.917742277446,-3292.12138527318,4237.3883096795325,7171.505375912314,6616.742987381784,5535.8911815442525,6661.415100097655,6590.2032350239,4845.543911582545,7803.753802650851,4752.121473613538,5755.863691631116,5426.218635157536,-17978.9568248548,6051.439987985711,5888.436969957853,5873.943630017731,5740.742934377568,3246.8218552438834,5914.474788464997,4996.186808535927,-15129.792062859784,-7609.066210295023,-1387.7843555651211,-2896.0328353078735,2259.957162957442,-4472.920769139339,-4500.213422273334
-1323.6623061330693,-14513.35455241956,308.87754339920843,2696.5141296386714,6286.909705714175,4163.290324964021,-3291.2430010343846,4235.31783254523,7169.999574360094,6617.182179501181,5528.362173783151,6659.658331620065,6589.011142128392,4845.230202925832,7805.510571128443,4749.988254747892,5755.361757780375,5427.034277664987,-17980.148917750306,6049.369510851408,5888.37422822651,5874.508305599815,5741.684060347707,3247.512014288651,5915.353172703793,4997.316159700092,-15131.862539994088,-7604.98799775776,-1388.3490311472035,-2896.1583187705587,2259.267003912674,-4470.285616422953,-4496.448918392784
-1324.2897234464945,-14513.229068956876,312.2028551603618,2699.525732743112,6288.603732460423,4165.7372524863795,-3288.921556974712,4237.32556794819,7170.5642499421765,6619.503623560855,5539.53020196212,6661.728808754368,6590.077751561214,4846.17132889597,7808.835882889597,4750.92938071803,5756.365625481856,5429.35572172466,-17977.576506765265,6050.498862015573,5890.193738435443,5875.951365420692,5742.938894974557,3247.9512064080486,5916.29429867393,4998.320027401573,-15130.67044709858,-7599.341241936934,-1387.2196799830383,-2895.2171928004213,2261.964898360403,-4466.019178691663,-4496.260693198756
-1322.7211801629317,-14512.789876837478,319.29267080206614,2703.9176539370887,6291.113401714124,4168.435146934107,-3287.603980616519,4240.148945858604,7171.944568031712,6621.699584157843,5549.317912051552,6663.736544157328,6591.20710272538,4847.049713134765,7811.596519068666,4751.243089374742,5756.930301063939,5430.7360398141955,-17977.76473195929,6050.938054134971,5891.197606136924,5876.767007928145,5742.876153243215,3246.947338706568,5916.106073479903,4997.75535181949,-15127.596102262796,-7595.451254593698,-1385.1492028487355,-2893.962358173571,2263.345216449938,-4462.94483385588,-4498.7703624524565
-1319.8350605211758,-14511.59778394197,325.69232739900286,2706.3018397281044,6293.372104042454,4170.066431949012,-3287.603980616519,4241.090071828741,7173.826819971986,6622.8916770533515,5540.408586200913,6663.0463851125605,6591.5835531134335,4848.053580836246,7812.663128501489,4748.419711464328,5756.616592407226,5430.987006739566,-17982.47036180998,6048.67935180664,5890.319221898128,5876.955233122172,5742.311477661132,3244.3121859901826,5915.227689241107,4996.563258923982,-15123.831598382243,-7594.070936504161,-1382.3258249383223,-2893.2094573974605,2262.090381823088,-4462.44290000514,-4501.656482094212
-1317.5763581928452,-14508.837147762899,324.4374927721525,2705.297972026624,6294.877905594673,4171.133041381836,-3287.9804310045743,4239.772495470548,7176.022780568976,6623.0799022473775,5523.782027395147,6660.411232396175,6591.332586188065,4848.93196507504,7812.412161576119,4743.9023068076685,5755.9891750938,5431.300715396278,-17988.807276675572,6044.914847926088,5888.37422822651,5877.017974853515,5742.562444586502,3241.237841154399,5914.349305002313,4995.873099879214,-15121.384670859887,-7595.451254593698,-1379.5651887592514,-2893.774132979543,2260.89828892758,-4464.638860602127,-4502.974058452405
-1316.5724904913648,-14505.700061195772,315.46542519017265,2703.102011429636,6296.00725675884,4172.701584665399,-3287.603980616519,4237.890243530273,7177.089390001798,6623.330869172748,5516.253019634046,6657.9015631424745,6591.70903657612,4849.873091045179,7812.349419844778,4740.4515115838285,5755.173532586348,5432.116357903731,-17993.70113172029,6041.4013109709085,5887.37036052503,5877.64539216694,5744.193729601408,3238.8536553633835,5913.78462942023,4996.186808535927,-15121.447412591227,-7598.651082892166,-1377.431969893606,-2893.3349408601457,2261.6511897036903,-4468.528847945364,-4500.903581318102
-1315.1921724018296,-14503.629584061471,308.43835127981083,2702.286368922183,6297.073866191663,4174.772061799701,-3286.035437332956,4237.513793142218,7177.40309865851,6624.460220336913,5519.076397544459,6656.8976954409945,6593.2148381283405,4851.441634328741,7813.353287546258,4739.69861080772,5754.922565660978,5433.747642918636,-17996.022575779964,6039.393575567948,5887.997777838456,5879.527644107216,5746.766140586451,3237.787045930561,5914.223821539627,4997.943577013517,-15122.451280292707,-7600.031400981701,-1375.9261683413856,-2890.072370830335,2263.7844085693355,-4471.101258930406,-4495.507792422645
-1312.4315362227587,-14502.12378250925,309.25399378726354,2703.3529783550057,6297.952250430458,4176.215121620579,-3283.839476735968,4239.01959469444,7178.218741165963,6626.154247083161,5525.664279335423,6657.776079679788,6594.97160660593,4853.449369731702,7814.796347367134,4741.518121016653,5756.051916825143,5435.6926365902555,-17995.20693327251,6039.268092105262,5889.127129002621,5882.162796823602,5749.150326377467,3238.2262380499587,5915.604139629163,5000.453246267218,-15121.510154322572,-7596.141413638466,-1374.04391640111,-2884.990290591591,2263.596183375308,-4468.340622751336,-4490.739420840614
-1308.917999267578,-14500.178788837631,314.64978268271994,2705.5489389519935,6298.767892937911,4177.093505859375,-3281.9572247956926,4241.592005679481,7179.473575792814,6627.597306904039,5530.934584768193,6659.344622963353,6596.602891620836,4855.457105134662,7816.051181993986,4744.717949315121,5757.934168765419,5437.574888530529,-17991.88162151136,6040.585668463456,5890.193738435443,5884.60972434596,5750.6561279296875,3239.2928474827813,5916.670749061986,5002.272756476151,-15117.431941785308,-7589.114339728104,-1370.4676377145863,-2881.5394953677524,2260.4590968081825,-4460.184197676809,-4490.802162571957
-1305.5926875064247,-14497.229927464532,320.98669754831405,2708.497800325092,6300.210952758788,4178.3483404862245,-3280.074972855417,4245.04280090332,7181.544052927116,6629.479558844315,5534.636346917402,6661.603325291683,6598.8615939491665,4857.841290925678,7817.93343393426,4748.356969732987,5761.008513601201,5440.461008172286,-17987.74066724275,6043.346304642526,5892.6406659578015,5887.621327450401,5752.287412944593,3240.4849403782887,5917.988325420179,5003.778558028371,-15112.538086740591,-7583.2166169819075,-1365.4482992071853,-2880.598369397615,2259.078778718647,-4449.643586811266,-4493.751023945055
-1304.4633363422593,-14494.720258210831,325.00216835423515,2711.070211310136,6301.904979505036,4180.2305924265,-3278.5064295718535,4247.615211888362,7184.179205643502,6632.0519698293565,5536.957790977076,6664.175736276728,6601.622230128238,4860.350960179378,7820.003911068563,4751.054864180715,5764.522050556383,5444.3509955155205,-17985.293739720393,6046.5461329409945,5896.09146118164,5891.1348644055815,5754.420631810238,3241.237841154399,5918.803967927631,5005.4725847746195,-15110.593093068972,-7579.828563489411,-1361.3700866699216,-2880.410144203587,2259.768937763414,-4441.7381286621085,-4495.068600303248
-1306.9102638646175,-14495.598642449628,324.24926757812494,2711.8231120862456,6302.908847206517,4181.171718396638,-3279.447555541992,4247.866178813732,7185.810490658408,6633.432287918893,5537.585208290501,6665.744279560289,6603.629965531198,4861.543053074886,7820.3803614566195,4751.995990150853,5766.592527690686,5447.111631694593,-17985.795673571134,6048.240159687241,5898.601130435341,5893.4563084652555,5755.8009498997735,3240.6731655723165,5917.988325420179,5006.539194207442,-15111.847927695824,-7578.887437519274,-1360.805411087839,-2881.9159457558076,2258.576844867907,-4440.671519229286,-4494.8176333778765
-1310.5492842824833,-14499.551371524207,321.3631479363692,2712.199562474301,6303.849973176654,4181.108976665296,-3282.2081917210626,4247.740695351048,7187.379033941971,6633.8714800382895,5537.459724827816,6666.936372455797,6605.261250546103,4862.233212119654,7819.501977217824,4752.435182270249,5768.286554436934,5448.742916709498,-17987.92889243678,6049.369510851408,5900.420640644274,5894.836626554788,5756.553850675883,3239.732039602179,5917.54913330078,5007.605803640265,-15114.106630024155,-7581.271623310289,-1363.6287889982523,-2886.307866949784,2255.6907252261512,-4446.255533318769,-4496.386176661441
-1311.113959864566,-14502.751199822675,321.8023400557668,2715.3993907727686,6306.861576281095,4182.301069560804,-3282.9610924971726,4250.375848067433,7191.206279553864,6636.255665829306,5539.404718499433,6670.136200754266,6608.586562307257,4864.680139642012,7820.443103187961,4755.133076717979,5772.051058317485,5451.503552888568,-17988.054375899465,6052.1928887618205,5903.620468942742,5897.660004465203,5758.938036466899,3240.4221986469465,5919.431385241056,5010.303698087992,-15114.294855218182,-7585.7262862356065,-1365.1973322818153,-2890.2605960243623,2254.0594402112456,-4452.96889857242,-4498.9585876464835
-1308.1650984914677,-14502.87668328536,325.0649100855777,2720.293245817485,6311.128014012385,4185.124447471217,-3280.7651319001848,4254.830510992752,7196.037392867238,6640.396620097912,5543.482931036698,6674.339896754214,6613.16670869526,4868.256418328536,7823.203739367032,4759.211289255241,5776.317496048776,5455.079831575092,-17986.54857434724,6055.769167448344,5907.698681480006,5901.800958733809,5762.514315153422,3241.677033273797,5921.941054494757,5013.315301192433,-15111.973411158508,-7589.1770814594465,-1363.7542724609373,-2890.69978814376,2254.4986323306434,-4456.23146860223,-4498.582137258429
-1304.4005946109169,-14501.308140001798,326.8844202945107,2723.1793654592407,6314.139617116827,4187.571374993575,-3277.6907870644013,4258.093081022564,7199.174479434364,6643.533706665038,5546.369050678452,6676.786824276572,6616.492020456414,4870.828829313579,7825.085991307309,4760.905316001489,5778.325231451737,5457.589500828793,-17987.74066724275,6057.463194194593,5910.271092465049,5905.126270494961,5765.651401720548,3241.6142915424543,5922.819438733552,5015.009327938682,-15110.028417486892,-7592.376909757913,-1363.2523386101973,-2888.503827546772,2255.565241763466,-4459.682263826068,-4493.939249139083
-1302.0791505512436,-14499.927821912263,326.2570029810855,2723.1793654592407,6314.95525962428,4188.826209620424,-3275.3066012733857,4258.971465261358,7199.9273802104735,6644.223865709806,5545.6788916336845,6677.22601639597,6617.558629889237,4872.460114328484,7825.587925158048,4760.40338215075,5778.387973183079,5458.656110261615,-17991.44242939196,6057.3377107319075,5911.02399324116,5907.196747629266,5768.161070974249,3240.7986490350017,5922.380246614153,5015.574003520765,-15110.593093068972,-7596.3296388324925,-1364.946365356445,-2885.303999248304,2256.9455598530008,-4466.20740388569,-4489.045394094366
-1300.8870576557358,-14497.606377852588,324.93942662289265,2722.3009812204455,6314.390584042197,4189.6418521278765,-3272.92241548237,4258.720498335989,7199.550929822419,6643.910157053094,5542.416321603875,6677.539725052681,6617.872338545949,4874.34236626876,7826.466309396843,4760.717090807462,5778.889907033819,5459.409011037726,-17992.50903882478,6057.212227269222,5911.274960166529,5908.765290912828,5769.980581183182,3240.924132497687,5922.129279688785,5015.950453908819,-15111.973411158508,-7597.208023071288,-1366.3266834459805,-2880.5356276662724,2258.325877942537,-4468.466106214021,-4487.602334273489
-1301.514474969161,-14494.40654955412,322.429757369192,2720.795179668225,6312.194623445209,4189.139918277137,-3271.981289512232,4257.214696783768,7197.919644807514,6642.718064157586,5536.957790977076,6677.539725052681,6617.119437769839,4874.8443001195,7826.968243247584,4761.783700240286,5779.266357421873,5458.969818918328,-17988.619051481546,6057.400452463249,5910.459317659076,5908.82803264417,5768.349296168277,3240.8613907663444,5921.376378912673,5015.072069670025,-15113.541954442073,-7594.949320742957,-1367.644259804173,-2876.520156860351,2258.137652748509,-4462.882092124537,-4490.551195646587
-1304.2123694168893,-14493.277198389955,318.79073695132604,2719.038411190635,6308.492861296,4186.379282098067,-3274.8674091539883,4255.395186574834,7195.221750359786,6639.831944515829,5531.938452469673,6677.22601639597,6615.174444098221,4872.648339522511,7825.274216501334,4762.9757931357935,5778.199747989052,5456.711116589998,-17981.96842795924,6057.776902851305,5908.765290912828,5906.56933031584,5762.577056884765,3239.4810726768087,5919.180418315686,5012.625142147665,-15115.675173307718,-7594.3219034295325,-1369.5265117444487,-2878.71611745734,2256.5691094649465,-4456.921627646998,-4496.6371435868095
-1306.22010481985,-14494.782999942176,318.03783617521583,2719.352119847348,6306.23415896767,4183.806871113024,-3279.6357807360196,4256.6500212016845,7194.155140926961,6637.635983918842,5531.624743812961,6679.108268336246,6614.358801590768,4870.326895462838,7822.3880968595795,4765.10901200144,5777.948781063682,5455.142573306433,-17977.639248496605,6059.219962672183,5908.5770657188,5904.624336644222,5758.059652228104,3237.536079005191,5917.109941181383,5010.931115401418,-15116.930007934568,-7597.208023071288,-1370.2166707892163,-2887.6254433079766,2254.812340987356,-4456.545177258943,-4501.84470728824
-1305.028011924342,-14495.849609374998,322.2415321751644,2722.8656568025285,6308.304636101972,4184.246063232422,-3281.5807744076374,4261.292909321032,7196.6020684493205,6638.137917769582,5532.628611514441,6683.751156455592,6616.366536993729,4870.201412000154,7820.066652799906,4767.8069064491665,5779.768291272614,5456.209182739257,-17978.9568248548,6061.1649563438,5910.333834196391,5905.251753957648,5758.875294735557,3236.155760915656,5916.670749061986,5011.119340595445,-15114.922272531609,-7599.341241936934,-1370.7186046399568,-2896.283802233244,2253.369281166478,-4459.431296900699,-4502.84857498972
-1300.6988324617084,-14493.967357434723,330.33521551834906,2728.88886301141,6314.327842310855,4188.324275769684,-3278.5064295718535,4266.625956485145,7201.80963215075,6641.275004336708,5531.56200208162,6688.45678630628,6620.38200779965,4872.397372597142,7819.188268561111,4770.442059165553,5783.1563447651115,5459.220785843698,-17983.536971242804,6062.984466552733,5912.906245181433,5907.698681480006,5762.388831690738,3235.7165687962574,5917.8628419574925,5012.562400416324,-15108.083423815275,-7596.3296388324925,-1371.2205384906968,-2899.734597457082,2252.616380390368,-4460.8116149902335,-4500.58987266139
-1295.0520766408815,-14490.516562210883,338.99357444361635,2734.974810951634,6320.978465833161,4193.845548127825,-3273.1106406763975,4270.327718634354,7206.82897065815,6645.541442067999,5535.514731156198,6690.4017799778985,6624.209253411544,4875.659942626952,7819.752944143193,4771.9478607177725,5786.356173063577,5462.169647216796,-17987.238733392012,6064.239301179584,5915.03946404708,5909.8946420769935,5765.023984407122,3235.7165687962574,5919.243160047028,5014.193685431229,-15099.73877354672,-7590.808366474351,-1368.961836162366,-2899.483630531712,2253.1810559724504,-4459.99597248278,-4498.456653795744
-1291.2875727603307,-14488.508826807923,343.3854956375925,2738.049155787417,6324.805711445055,4197.296343351665,-3270.161779303299,4271.20610287315,7208.77396432977,6648.427561709755,5547.435660111276,6689.46065400776,6625.966021889134,4877.667678029913,7820.003911068563,4771.508668598375,5787.548265959086,5463.048031455592,-17987.113249929327,6064.490268104953,5915.917848285875,5910.647542853104,5766.0905938399455,3235.5910853335727,5919.180418315686,5014.632877550625,-15095.597819278111,-7587.734021638568,-1364.444431505705,-2897.0994447406965,2254.435890599301,-4458.49017093056,-4497.264560900236
-1289.6562877454255,-14488.571568539266,343.69920429430505,2737.986414056075,6325.370387027137,4197.359085083008,-3271.66758085552,4270.641427291066,7208.460255673056,6648.9294955604955,5557.411595394737,6688.45678630628,6625.777796695105,4877.730419761256,7819.12552682977,4770.693026090923,5786.607139988949,5462.357872410824,-17984.03890509354,6064.302042910927,5915.917848285875,5909.8946420769935,5765.525918257863,3235.02640975149,5917.925583688836,5013.691751580489,-15095.53507754677,-7587.922246832595,-1360.6171858938114,-2892.5820400840353,2255.816208688836,-4457.360819766395,-4496.574401855468
-1287.397585417095,-14488.383343345238,344.3266216077302,2737.10802981728,6324.241035862972,4196.1042504561565,-3274.8674091539883,4270.955135947779,7207.77009662829,6648.239336515727,5558.666430021585,6688.70775323165,6625.150379381681,4877.165744179173,7817.68246700889,4770.504800896895,5785.164080168071,5461.416746440686,-17982.846812198033,6063.862850791529,5915.03946404708,5908.326098793431,5763.70640804893,3234.398992438065,5916.670749061986,5011.9349831028985,-15095.095885427372,-7588.486922414679,-1356.9781654759456,-2887.813668502004,2256.7573346589734,-4455.666793020147,-4497.076335706209
-1284.9506578947367,-14487.128508718388,344.7030719957853,2736.292387309827,6322.484267385382,4195.539574874075,-3275.996760318153,4271.457069798519,7206.640745464123,6647.611919202302,5555.9685355738575,6688.645011500308,6624.460220336913,4876.60106859709,7815.988440262643,4770.504800896895,5783.658278615851,5460.161911813836,-17984.352613750256,6062.357049239308,5912.592536524721,5905.81642953973,5761.322222257913,3234.148025512695,5915.102205778422,5009.6135390432255,-15093.025408293068,-7588.235955489309,-1353.401886789422,-2885.680449636359,2256.6318511962886,-4453.031640303761,-4498.895845915142
-1285.954525596217,-14486.501091404964,341.1895350406044,2734.974810951634,6320.225565057051,4195.225866217362,-3274.9301508853305,4270.515943828382,7204.444784867135,6646.859018426192,5554.462734021638,6687.327435142115,6623.519094366776,4875.471717432924,7813.604254471627,4770.253833971525,5781.587801481547,5458.02869294819,-17984.415355481597,6060.098346910978,5909.141741300883,5902.930309897974,5758.749811272872,3234.02254205001,5912.7180199874065,5006.664677670127,-15092.7744413677,-7590.118207429584,-1353.7783371774772,-2887.1235094572367,2256.067175614206,-4452.5297064530205,-4500.08793881065
-1290.5346719842207,-14486.501091404964,335.66826268246297,2733.657234593441,6318.657021773488,4195.288607948704,-3272.7341902883422,4269.072884007504,7202.750758120888,6646.608051500822,5554.7764426783515,6686.637276097347,6622.8916770533515,4874.781558388157,7811.847485994037,4770.253833971525,5779.768291272614,5456.648374858655,-17981.090043720444,6059.219962672183,5906.82029724121,5901.110799689041,5756.930301063939,3234.3362507067222,5911.02399324116,5004.029524953741,-15096.413461785563,-7595.263029399671,-1359.2996095356186,-2890.8880133377875,2256.506367733604,-4455.415826094778,-4499.711488422594
-1293.9854672080592,-14485.371740240798,334.47616978695515,2734.5356188322367,6320.162823325709,4197.045376426295,-3270.2245210346414,4270.327718634354,7204.31930140445,6648.866753829152,5557.850787514134,6688.70775323165,6624.271995142886,4876.538326865748,7813.1023206208865,4771.571410329718,5780.207483392012,5458.154176410875,-17976.698122526468,6061.039472881116,5907.134005897923,5901.800958733809,5757.6204601087065,3235.7165687962574,5911.651410554584,5003.527591103001,-15100.177965666117,-7599.9686592503585,-1364.2562063116775,-2893.774132979543,2257.7612023604543,-4457.674528423108,-4498.142945139031
-1293.609016820004,-14483.489488300524,337.86422327945104,2736.8570628919097,6323.550876818204,4198.7394031725435,-3270.66371315404,4273.402063470136,7207.456387971576,6651.4391648141955,5562.368192170795,6691.405647679378,6626.405214008531,4878.420578806024,7815.235539486531,4772.63801976254,5781.65054321289,5460.412878739206,-17974.313936735452,6063.109950015419,5908.012390136718,5902.177409121864,5758.938036466899,3236.5949530350526,5912.906245181433,5003.590332834344,-15099.487806621348,-7602.039136384662,-1365.3855574758427,-2894.401550292968,2258.576844867907,-4457.862753617135,-4497.264560900236
-1291.0366058349607,-14481.48175289756,342.13066101074213,2738.551089638157,6326.248771265933,4198.7394031725435,-3272.9851572137127,4275.22157367907,7209.024931255138,6651.690131739566,5565.128828349865,6692.346773649516,6626.907147859271,4877.855903223941,7815.674731605931,4772.1360859118,5781.90151013826,5460.538362201891,-17973.686519422026,6063.549142134816,5907.32223109195,5899.793223330848,5758.247877422132,3236.0302774529705,5912.843503450092,5002.084531282122,-15095.095885427372,-7602.7920371607715,-1363.691530729595,-2893.711391248201,2258.953295255962,-4458.8038795872735,-4498.017461676345
-1287.9622609991775,-14479.850467882656,345.58145623458057,2739.743182533665,6327.5036058927835,4198.362952784488,-3273.17338240774,4275.409798873097,7209.401381643193,6650.749005769428,5565.756245663291,6692.534998843544,6625.589571501078,4876.475585134404,7815.298281217875,4771.13221821032,5781.274092824834,5458.907077186986,-17973.937486347397,6063.423658672132,5906.004654733758,5897.032587151778,5756.553850675883,3235.402860139545,5912.52979479338,5000.578729729903,-15090.390255576684,-7602.917520623458,-1360.805411087839,-2892.393814890008,2260.208129882812,-4461.689999229029,-4499.209554571854
-1285.1388830887643,-14478.783858449831,347.02451605545843,2740.7470502351457,6328.068281474865,4198.362952784488,-3271.542097392835,4275.158831947728,7209.715090299906,6649.9333632619755,5566.0699543200035,6693.162416156969,6624.3974786055705,4876.036393015008,7815.110056023848,4771.320443404348,5780.583933780067,5457.27579217208,-17975.00409578022,6063.862850791529,5905.377237420333,5896.279686375668,5755.8009498997735,3236.657694766396,5913.408179032174,5001.143405311986,-15087.002202084188,-7602.415586772717,-1357.6055827893708,-2891.076238531815,2262.090381823088,-4464.513377139441,-4499.146812840511
-1282.6292138350636,-14478.219182867751,345.20500584652547,2741.437209279913,6328.6956987882895,4198.42569451583,-3270.851938348067,4275.409798873097,7209.840573762591,6649.180462485865,5567.262047215511,6694.291767321134,6624.648445530941,4875.910909552323,7814.67086390445,4773.014470150596,5780.0192581979845,5456.2719244706,-17975.81973828767,6064.929460224352,5905.126270494961,5896.405169838353,5755.8009498997735,3239.4810726768087,5914.412046733655,5002.523723401521,-15086.186559576736,-7604.046871787622,-1355.7860725804378,-2891.3272054571853,2261.6511897036903,-4468.089655825966,-4499.899713616622
-1281.4998626708982,-14479.787726151313,340.1229256077816,2740.496083309776,6327.6918310868095,4197.108118157636,-3273.1106406763975,4274.656898096988,7208.021063553658,6646.859018426192,5565.881729125976,6693.413383082339,6624.021028217516,4874.09139934339,7812.412161576119,4773.641887464021,5778.199747989052,5454.201447336297,-17977.137314645865,6064.553009836297,5903.683210674085,5895.024851748817,5754.73434046695,3240.2967151842618,5912.968986912777,5001.080663580642,-15088.696228830437,-7608.877985100995,-1358.7976756848786,-2895.6563849198187,2261.0237723902646,-4473.610928184107,-4505.1072773180495
-1282.190021715666,-14483.113037912468,336.2329382645456,2738.1746392501027,6324.492002788344,4194.347481978567,-3276.3732107062087,4272.4609375,7204.444784867135,6643.470964933696,5560.485940230519,6690.025329589843,6621.072166844418,4870.828829313579,7808.647657695568,4772.073344180458,5775.188144884611,5451.06436076917,-17978.894083123458,6062.043340582596,5901.110799689041,5892.452440763774,5753.73047276547,3238.3517215126435,5909.455449957596,4997.190676237407,-15091.707831934877,-7612.328780324835,-1364.8836236251027,-2902.1187832480978,2262.7805408678555,-4477.312690333316,-4510.691291407536
-1282.691955566406,-14483.991422151263,338.36615713019114,2737.547221936677,6322.107816997327,4193.280872545744,-3274.4282170345905,4271.8962619179165,7202.499791195517,6642.216130306845,5557.474337126078,6687.95485245554,6618.437014128032,4869.197544298673,7806.765405755293,4771.571410329718,5773.870568526418,5449.80952614232,-17978.203924078687,6060.537539030375,5899.6049981368205,5890.946639211554,5754.357890078895,3237.159628617136,5907.698681480006,4994.6810069837065,-15090.76670596474,-7610.383786653216,-1367.393292878803,-2905.444095009251,2264.3490841514185,-4474.489312422903,-4511.632417377672
-1282.3782469096936,-14480.41514346474,344.13839641370265,2737.7981888620475,6321.794108340614,4195.1003827546765,-3266.209050228721,4272.523679231342,7202.876241583573,6644.035640515777,5558.6036882902445,6688.895978425678,6617.809596814606,4870.264153731496,7808.208465576171,4773.202695344623,5774.999919690583,5450.562426918431,-17975.129579242905,6061.353181537828,5899.918706793534,5891.385831330951,5754.98530739232,3238.4772049753287,5909.07899956954,4995.433907759816,-15086.249301308078,-7604.172355250307,-1365.0091070877877,-2904.2520021137434,2264.5373093454455,-4467.399496781198,-4510.126615825452
-1282.8801807604336,-14476.776123046871,348.8440262643914,2736.60609596654,6322.107816997327,4196.4179591128695,-3262.820996736225,4272.3981957686565,7204.06833447908,6645.604183799342,5560.046748111122,6690.652746903268,6618.248788934005,4871.644471821032,7810.718134829872,4774.394788240131,5776.693946436832,5451.1271025005135,-17973.56103595934,6063.047208284076,5901.236283151728,5892.515182495116,5754.4833735415805,3240.6104238409744,5911.651410554584,4997.629868356805,-15083.112214740951,-7599.905917519018,-1362.0602457146895,-2901.8050745913847,2264.662792808131,-4463.94870155736,-4509.122748123971
-1283.9467901932564,-14476.525156121503,351.4164372494346,2736.4806125038544,6322.923459504779,4195.853283530786,-3271.2283887361223,4272.7119044253695,7205.5741360313,6645.478700336656,5561.615291394684,6692.346773649516,6619.37814009817,4872.271889134457,7812.600386770147,4774.896722090872,5778.074264526366,5451.378069425883,-17974.313936735452,6065.054943687037,5903.4322437487135,5893.58179192794,5753.855956228155,3242.367192318565,5913.78462942023,4999.825828953793,-15083.174956472294,-7601.348977339894,-1360.554444162469,-2900.362014770508,2265.164726658871,-4466.521112542402,-4508.620814273231
-1283.9467901932564,-14478.156441136409,352.04385456285974,2738.9275400262127,6324.8684531763965,4195.602316605416,-3280.702390168842,4274.280447708932,7206.891712389493,6645.415958605314,5563.49754333496,6693.789833470393,6621.38587550113,4872.773822985197,7813.729737934312,4775.649622866981,5779.2036156905315,5452.4446788587065,-17975.25506270559,6066.999937358655,5906.192879927785,5894.460176166735,5753.604989302785,3244.24944425884,5915.415914435135,5002.147273013466,-15084.618016293172,-7606.368315847296,-1359.8015433863588,-2900.17378957648,2265.3529518528985,-4470.5993250796655,-4508.683556004574
-1282.9429224917762,-14480.41514346474,351.10272859272203,2740.998017160516,6327.252638967413,4196.480700844212,-3282.584642109118,4275.347057141756,7207.3936462402335,6646.231601112767,5563.74851026033,6694.354509052477,6622.828935322008,4873.150273373252,7814.043446591024,4776.0888149863795,5779.705549541272,5453.699513485557,-17975.50602963096,6068.38025544819,5907.82416494269,5894.899368286132,5753.604989302785,3246.194437930458,5917.04719945004,5004.092266685084,-15086.186559576736,-7611.638621280067,-1359.7388016550162,-2901.114915546618,2265.6039187782685,-4473.67366991545,-4509.122748123971
-1282.5037303723786,-14482.799329255755,349.09499318976145,2740.307858115748,6328.507473594264,4196.9198929636095,-3281.0788405568974,4274.845123291016,7207.268162777549,6646.608051500822,5562.305450439452,6694.103542127105,6622.766193590664,4873.024789910567,7812.976837158201,4775.084947284899,5779.768291272614,5453.699513485557,-17976.76086425781,6068.568480642218,5907.698681480006,5895.024851748817,5753.416764108758,3246.8218552438834,5918.302034076891,5004.594200535824,-15087.81784459164,-7615.340383429275,-1360.428960699784,-2902.997167486893,2265.7294022409537,-4476.873498213919,-4508.934522929944
-1280.9351870888156,-14482.611104061729,348.8440262643914,2739.743182533665,6329.699566489771,4197.484568545692,-3279.0083634225944,4275.158831947728,7208.146547016344,6647.2982105455885,5563.434801603617,6694.668217709189,6622.954418784693,4873.777690686677,7812.725870232832,4774.7712386281855,5781.0231258994645,5453.762255216899,-17977.576506765265,6068.9449310302725,5908.07513186806,5895.965977718955,5754.357890078895,3247.7002394826786,5919.619610435084,5005.1588761179055,-15087.253169009558,-7615.089416503905,-1359.9897685803865,-2903.7500682630034,2266.356819554379,-4479.445909198961,-4507.930655228463
-1277.0451997455796,-14479.41127576326,351.4791789807771,2741.186242354543,6331.079884579306,4198.802144903885,-3276.561435900236,4277.543017738744,7210.342507613331,6648.6157869037825,5569.3952660811565,6697.0524035002045,6624.021028217516,4876.099134746351,7814.482638710422,4776.841715762489,5783.532795153164,5455.079831575092,-17973.874744616056,6071.203633358604,5909.957383808336,5897.910971390573,5756.177400287828,3249.958941811009,5921.815571032072,5007.041128058182,-15084.178824173776,-7611.011203966643,-1356.7271985505756,-2903.185392680921,2266.607786479749,-4477.814624184056,-4506.738562332956
-1274.5982722232216,-14477.654507285668,353.7378813091077,2741.813659667968,6329.574083027086,4198.488436247173,-3275.934018586811,4278.672368902909,7210.656216270045,6647.800144396329,5576.610565185546,6698.244496395712,6623.0799022473775,4876.726552059776,7814.859089098477,4778.473000777395,5784.034729003904,5454.703381187037,-17964.400743183334,6073.2741104929055,5910.522059390419,5897.973713121915,5755.549982974403,3250.962809512489,5922.693955270867,5007.605803640265,-15082.79850608424,-7607.999600862202,-1353.3391450580796,-2904.5029690391134,2264.7255345394733,-4472.607060482627,-4507.365979646381
-1276.856974551552,-14479.41127576326,351.7928876374897,2739.0530234888975,6323.990068937602,4195.037641023334,-3277.8790122584287,4275.786249261153,7206.327036807411,6644.098382247121,5579.43394309596,6695.107409828587,6619.064431441457,4873.213015104594,7812.035711188064,4776.339781911749,5780.458450317382,5450.499685187088,-17956.05609291478,6071.768308940686,5907.635939748663,5894.271950972707,5751.97370428788,3249.017815840871,5920.309769479852,5004.9706509238795,-15085.05720841257,-7610.070077996504,-1355.0331718043276,-2908.079247725637,2263.031507793225,-4470.160132960269,-4510.0638740941085
-1282.9429224917762,-14483.301263106496,345.33048930921046,2733.155300742701,6316.837511564554,4190.018302515933,-3280.074972855417,4269.637559589585,7199.237221165707,6639.3300106650895,5574.351862857216,6688.080335918225,6613.041225232575,4867.189808895713,7808.208465576171,4770.316575702867,5774.247018914472,5444.225512052836,-17958.75398736251,6065.870586194489,5902.1146673905205,5888.436969957853,5747.77000828793,3245.629762348376,5916.04333174856,5000.51598799856,-15089.574613069231,-7615.71683381733,-1361.3073449385793,-2910.4634335166525,2263.972633763364,-4471.979643169201,-4511.444192183645
-1289.9072546707955,-14487.818667763157,338.05244847347853,2726.3164520263667,6310.751563624332,4185.187189202559,-3281.8944830643495,4262.673227410567,7192.774822837428,6634.687122545744,5563.309318140933,6680.112136037726,6606.704310366981,4860.978377492804,7805.1341207403875,4762.285634091026,5767.9101040488795,5438.516014500668,-17971.929750944437,6057.714161119961,5896.028719450297,5882.664730674342,5744.130987870065,3242.178967124537,5912.09060267398,4996.186808535927,-15094.154759457235,-7619.857788085936,-1366.0757165206105,-2909.6477910092,2265.980369166324,-4472.983510870682,-4511.193225258275
-1294.4874010587992,-14490.328337016856,334.2252028615851,2722.2382394891038,6308.179152639288,4182.363811292145,-3282.8983507658304,4257.779372365851,7189.261285882248,6632.177453292043,5552.51774035002,6674.653605410927,6602.877064755087,4857.088390149568,7804.192994770249,4755.885977494088,5763.70640804893,5435.567153127568,-17985.48196491442,6051.314504523026,5891.825023450348,5879.088451987817,5742.436961123817,3240.0457482588918,5910.333834196391,4994.05358967028,-15095.848786203484,-7619.2303707725105,-1365.0091070877877,-2906.636187904759,2267.423428987201,-4469.971907766241,-4511.695159109016
-1294.4874010587992,-14488.697052001951,335.73100441380546,2723.053881996556,6309.559470728824,4182.803003411544,-3281.5807744076374,4256.6500212016845,7189.700478001644,6632.993095799496,5546.870984529192,6673.336029052733,6603.1907734118,4857.0256484182255,7806.326213635894,4753.125341315018,5762.70254034745,5435.8808617842815,-17993.01097267552,6049.620477776778,5891.448573062294,5879.213935450504,5743.315345362613,3240.2967151842618,5911.274960166529,4994.994715640419,-15092.962666561729,-7614.46199919048,-1359.3623512669612,-2903.185392680921,2267.235203793174,-4464.827085796155,-4512.82451027318
-1291.2875727603307,-14485.246256778111,340.8758263838918,2726.6929024144215,6312.571073833265,4185.500897859271,-3278.945621691252,4258.720498335989,7192.335630718028,6635.377281590511,5547.749368767989,6675.155539261666,6605.888667859528,4859.472575940584,7810.090717516447,4753.501791703073,5764.082858436986,5438.014080649928,-17993.82661518297,6051.753696642423,5894.397434435392,5882.037313360916,5745.385822496915,3241.928000199167,5913.721887688887,4997.880835282174,-15088.82171229312,-7608.752501638311,-1353.652853714792,-2901.554107666015,2265.854885703639,-4462.568383467825,-4512.510801616468
-1288.8406452379727,-14483.991422151263,345.9579066226357,2729.5162803248354,6314.390584042197,4188.010567112972,-3277.8162705270865,4261.73210144043,7194.468849583675,6637.259533530786,5552.76870727539,6677.790691978053,6608.210111919201,4861.856761731599,7813.039578889546,4755.885977494088,5765.714143451891,5440.335524709601,-17989.811144377054,6055.329975328947,5898.224680047286,5885.048916465357,5746.703398855108,3243.3710600200448,5915.79236482319,5000.51598799856,-15088.06881151701,-7606.054607190583,-1351.707860043174,-2903.0599092182356,2264.662792808131,-4465.266277915553,-4510.189357556795
-1288.7779035066303,-14486.626574867649,348.21660895096625,2730.206439369603,6314.265100579512,4188.888951351768,-3278.8201382285665,4262.73596914191,7194.719816509045,6637.635983918842,5556.344985961913,6678.606334485505,6608.774787501285,4862.421437313682,7813.91796312834,4757.768229434364,5766.0905938399455,5441.339392411081,-17986.4858326159,6057.65141938862,5900.35789891293,5886.491976286235,5746.640657123766,3243.935735602128,5916.168815211246,5001.51985570004,-15090.578480770711,-7607.936859130858,-1353.3391450580796,-2906.447962710732,2263.7844085693355,-4470.222874691612,-4507.930655228463
-1289.6562877454255,-14491.39494644968,348.21660895096625,2729.13982993678,6313.135749415347,4188.198792307,-3279.6357807360196,4261.292909321032,7193.464981882195,6636.694857948704,5556.094019036544,6677.288758127313,6607.6454363371195,4861.605794806229,7813.91796312834,4758.019196359734,5765.651401720548,5441.213908948396,-17987.238733392012,6057.714161119961,5900.420640644274,5886.680201480262,5746.013239810341,3244.186702527498,5915.666881360505,5001.645339162726,-15093.339116949783,-7612.203296862149,-1356.0997812371504,-2908.455698113692,2262.90602433054,-4472.607060482627,-4506.675820601614
-1289.1543538946853,-14494.155582628751,347.96564202559614,2727.5085449218745,6312.069139982524,4187.257666336862,-3278.0672374524565,4259.285173918072,7192.210147255345,6636.255665829306,5554.52547575298,6675.908440037777,6606.516085172952,4861.731278268913,7815.110056023848,4758.207421553761,5765.9023686459195,5441.527617605108,-17988.368084556176,6057.212227269222,5900.106931987561,5887.4958439877155,5746.264206735711,3245.127828497635,5915.8551065545325,5002.3354982074925,-15093.966534263209,-7614.71296611585,-1356.4762316252054,-2906.447962710732,2262.592315673828,-4468.968040064761,-4504.040667885228
-1288.4641948499177,-14493.277198389955,345.4559727718955,2725.3753260562294,6310.312371504933,4186.6302490234375,-3275.243859542043,4257.2774385151115,7190.453378777755,6636.443891023334,5553.270641126131,6674.841830604953,6605.449475740131,4862.735145970393,7817.243274889493,4758.897580598529,5766.2788190339725,5442.343260112561,-17985.92115703382,6057.14948553788,5899.981448524876,5888.876162077249,5747.519041362561,3245.943471005088,5916.168815211246,5003.276624177631,-15092.648957905012,-7612.767972444232,-1353.2136615953943,-2901.1776572779604,2262.717799136513,-4460.246939408151,-4499.335038034539
-1289.6562877454255,-14490.579303942228,340.4366342644942,2723.1793654592407,6307.551735325863,4186.191056904039,-3274.1772501092205,4255.144219649465,7188.069192986738,6636.318407560649,5552.705965544047,6673.775221172131,6604.320124575966,4863.048854627107,7818.309884322317,4759.65048137464,5766.2788190339725,5442.531485306588,-17981.027301989103,6057.463194194593,5899.918706793534,5889.691804584703,5748.836617720754,3245.692504079718,5916.29429867393,5003.715816297029,-15091.896057128904,-7607.623150474145,-1349.3236742521583,-2896.9112195466687,2263.345216449938,-4451.27487182617,-4496.323434930097
-1292.7933743125511,-14489.198985852692,337.0485807719984,2721.297113518965,6304.602873952765,4185.626381321957,-3275.557568198756,4253.450192903217,7186.124199315121,6635.5027650531965,5553.270641126131,6672.8340952019935,6603.378998605828,4862.107728656969,7817.117791426808,4759.901448300009,5766.0905938399455,5441.904067993163,-17978.517632735402,6057.839644582648,5900.106931987561,5889.440837659333,5749.401293302836,3244.3121859901826,5916.168815211246,5002.900173789576,-15093.464600412468,-7604.172355250307,-1348.5707734760483,-2898.730729755602,2264.9137597335007,-4448.514235647101,-4499.460521497224
-1296.6206199244448,-14489.763661434772,336.10745480186057,2719.9167954294303,6303.222555863229,4185.3126726652445,-3275.557568198756,4252.822775589792,7185.371298539009,6635.565506784539,5553.7725749768715,6672.52038654528,6603.441740337171,4861.605794806229,7815.361022949219,4760.215156956721,5766.341560765316,5441.778584530479,-17980.52536813836,6058.467061896073,5901.487250077096,5889.378095927991,5749.589518496864,3243.057351363332,5916.04333174856,5002.084531282122,-15096.601686979591,-7603.670421399566,-1352.3352773565991,-2904.942161158511,2266.6705282110916,-4454.537441855982,-4506.173886750873
-1299.443997834858,-14489.9518866288,335.73100441380546,2720.1677623548,6304.916582609477,4186.504765560752,-3271.604839124177,4253.889385022615,7187.253550479286,6638.012434306896,5553.1451576634445,6674.277155022872,6605.198508814761,4863.362563283819,7816.051181993986,4761.532733314915,5768.788488287673,5444.1627703214945,-17983.913421630856,6060.098346910978,5904.373369718852,5891.699539987664,5750.907094855057,3243.4965434827295,5917.360908106753,5003.778558028371,-15098.734905845238,-7602.9802623547985,-1357.3546158640006,-2907.702797337582,2267.9253628379415,-4462.819350393193,-4509.373715049342
-1299.820448222913,-14489.38721104672,336.9858390406558,2721.9872725637333,6308.304636101972,4188.1360505756575,-3267.903076974969,4256.085345619603,7191.018054359837,6641.3377460680495,5552.454998618678,6677.47698332134,6607.770919799804,4866.12319946289,7818.874559904399,4763.414985255191,5772.490250436882,5447.80179073936,-17985.795673571134,6062.106082313939,5907.008522435238,5895.275818674188,5753.354022377415,3244.625894646895,5919.870577360452,5007.103869789525,-15099.676031815376,-7602.603811966744,-1358.2330001027958,-2905.255869815224,2268.3018132259967,-4464.70160233347,-4506.550337138929
-1298.0009380139802,-14489.512694509403,341.69146889134447,2723.5558158472963,6311.128014012385,4188.888951351768,-3267.777593512284,4257.967597559878,7194.155140926961,6642.969031082956,5552.894190738074,6679.4847187243,6609.778655202765,4867.252550627056,7821.321487426757,4764.418852956671,5775.125403153268,5450.1232347990335,-17986.73679954127,6062.858983090049,5908.137873599403,5897.283554077148,5755.173532586348,3243.935735602128,5921.062670255961,5008.9861217298,-15100.177965666117,-7604.6115473697055,-1355.3468804610402,-2901.114915546618,2267.6116541812294,-4460.8116149902335,-4500.025197079306
-1294.4246593274568,-14489.88914489746,348.7812845330489,2724.4342000860916,6313.637683266087,4189.767335590563,-3268.9696864077914,4259.724366037469,7196.351101523951,6643.408223202353,5554.650959215664,6679.923910843698,6611.7863906057255,4867.942709671824,7822.199871665552,4764.544336419356,5776.756688168174,5451.06436076917,-17987.615183780064,6062.4825327019935,5908.5770657188,5898.224680047286,5756.4283672132,3241.237841154399,5920.247027748509,5009.048863461143,-15098.421197188529,-7607.309441817433,-1352.9626946700243,-2896.8484778153265,2266.419561285721,-4458.050978811163,-4494.943116840563
-1290.5346719842207,-14490.3910787482,351.2909537867495,2725.249842593544,6315.70816040039,4191.210395411441,-3269.910812377929,4261.543876246402,7198.170611732884,6643.784673590409,5557.411595394737,6680.300361231753,6614.170576396741,4869.699478149413,7821.823421277498,4765.610945852179,5778.325231451737,5452.005486739308,-17987.67792551141,6062.41979097065,5909.267224763568,5899.918706793534,5758.749811272872,3239.041880557412,5919.3686435097125,5009.48805558054,-15095.409594084083,-7606.619282772665,-1351.1431844610916,-2893.8996164422283,2265.3529518528985,-4456.545177258943,-4494.503924721164
-1289.7817712081105,-14491.89688030042,343.57372083162005,2724.245974892064,6314.767034430252,4191.210395411441,-3273.236124139082,4261.167425858345,7197.668677882143,6642.404355500873,5558.666430021585,6679.861169112355,6614.6097685161385,4870.326895462838,7820.254877993934,4765.9873962402335,5777.948781063682,5452.193711933336,-17987.615183780064,6061.41592326917,5908.200615330746,5900.922574495014,5761.008513601201,3237.661562467876,5918.3647758082325,5009.927247699938,-15095.409594084083,-7603.168487548827,-1349.8883498342411,-2894.464292024311,2265.164726658871,-4454.22373319927,-4497.891978213661
-1291.664023148386,-14493.465423583983,334.16246113024255,2721.736305638364,6311.253497475072,4189.20266000848,-3278.945621691252,4258.908723530016,7194.719816509045,6639.706461053145,5558.478204827559,6678.041658903422,6612.539291381835,4868.758352179276,7818.435367785001,4764.607078150699,5775.250886615952,5451.06436076917,-17987.803408974094,6059.031737478155,5905.502720883018,5899.793223330848,5761.635930914627,3235.465601870888,5916.106073479903,5008.609671341745,-15097.856521606443,-7600.282367907071,-1349.5746411775287,-2897.0994447406965,2265.478435315584,-4451.8395474082545,-4501.029064780786
-1293.4835333573187,-14494.469291285463,333.22133516010484,2720.1050206234577,6307.551735325863,4185.814606515984,-3282.2081917210626,4257.02647158974,7191.833696867288,6637.008566605416,5559.168363872327,6676.598599082545,6609.590430008737,4866.311424656918,7817.7452087402335,4762.91305140445,5772.615733899567,5449.621300948293,-17986.98776646664,6056.961260343852,5903.05579336066,5897.534521002518,5759.816420705694,3232.8304491545023,5913.78462942023,5006.100002088045,-15099.989740472089,-7599.843175787673,-1350.2020584909535,-2900.550239964535,2265.6039187782685,-4450.584712781404,-4500.150680541991
-1295.1775601035667,-14496.037834569026,337.738739816766,2719.352119847348,6304.47739049008,4181.548168784693,-3280.702390168842,4255.26970311215,7189.763219732987,6633.996963500976,5558.039012708162,6675.281022724352,6606.516085172952,4863.864497134559,7818.184400859632,4760.842574270147,5770.357031571237,5447.425340351305,-17987.238733392012,6055.079008403577,5900.483382375616,5894.648401360761,5754.797082198293,3230.383521632144,5911.525927091899,5003.276624177631,-15101.683767218336,-7602.854778892115,-1352.398019087942,-2904.2520021137434,2266.482303017064,-4453.3453489604735,-4498.017461676345
-1296.055944342362,-14496.539768419765,341.69146889134447,2719.7285702354025,6303.787231445312,4179.22672472502,-3278.3182043778265,4254.76776926141,7189.324027613588,6632.177453292043,5553.9608001708975,6674.465380216899,6604.759316695362,4862.923371164422,7819.188268561111,4758.709355404502,5768.788488287673,5445.9822805304275,-17989.622919183028,6053.447723388671,5898.287421778628,5892.264215569747,5749.777743690892,3228.689494885896,5910.08286727102,5001.51985570004,-15101.370058561624,-7606.1173489219245,-1352.4607608192844,-2905.0049028898534,2267.423428987201,-4458.3019457365335,-4498.331170333059
-1295.303043566252,-14494.532033016803,340.24840907046666,2721.297113518965,6306.23415896767,4180.607042814556,-3278.129979183799,4256.210829082288,7190.704345703124,6633.620513112921,5551.325647454512,6675.03005579898,6605.198508814761,4863.488046746505,7819.941169337221,4757.956454628392,5768.286554436934,5447.174373425935,-17991.630654585988,6052.820306075246,5897.597262733861,5891.1348644055815,5748.899359452096,3227.685627184416,5909.643675151624,5001.268888774671,-15097.668296412416,-7605.364448145814,-1348.8217404014183,-2901.993299785413,2267.109720330489,-4459.619522094726,-4499.962455347964
-1294.4874010587992,-14492.587039345188,333.72326901084494,2721.9872725637333,6308.806569952712,4182.740261680201,-3279.1965886166217,4257.340180246453,7191.269021285208,6635.753731978566,5551.011938797799,6675.406506187037,6606.076893053556,4863.488046746505,7819.627460680509,4757.580004240337,5767.157203272769,5448.55469151547,-17992.19533016807,6051.879180105108,5896.718878495065,5889.691804584703,5750.405161004317,3225.80337524414,5908.3888405247735,5000.3277628045325,-15094.092017725892,-7604.6115473697055,-1348.445290013363,-2899.9228226511095,2266.6705282110916,-4458.866621318616,-4502.5976080643495
-1293.859983745374,-14492.712522807871,331.21359975714427,2721.297113518965,6309.559470728824,4183.179453799598,-3280.451423243472,4257.214696783768,7190.327895315068,6636.067440635279,5552.01580649928,6675.343764455694,6606.0141513222125,4862.546920776366,7818.623592979029,4756.638878270199,5765.086726138466,5447.990015933387,-17992.383555362096,6050.373378552888,5894.522917898077,5887.558585719057,5751.220803511769,3222.9172556023846,5906.31836339047,4998.25728567023,-15093.150891755755,-7608.187826056229,-1350.7667340730363,-2902.997167486893,2266.356819554379,-4459.117588243986,-4505.922919825504
-1292.4796656558387,-14493.465423583983,335.793746145148,2719.4776033100325,6308.994795146741,4182.614778217516,-3281.2670657509248,4255.959862156918,7189.449511076274,6634.938089471114,5553.709833245528,6675.155539261666,6604.947541889391,4861.856761731599,7817.619725277549,4755.572268837376,5762.890765541478,5446.045022261769,-17992.571780556125,6049.244027388721,5892.264215569747,5885.8645589728085,5750.907094855057,3220.093877691971,5904.498853181537,4995.873099879214,-15092.83718309904,-7609.881852802477,-1349.4491577148435,-2908.518439845034,2265.7921439722963,-4458.92936304996,-4506.487595407586
-1291.350314491673,-14494.343807822775,340.68760118986427,2716.466000205592,6306.359642430355,4181.297201859323,-3281.3925492136095,4252.885517321134,7187.128067016601,6632.616645411441,5554.839184409693,6672.77135347065,6601.873197053607,4860.099993254009,7816.051181993986,4753.815500359786,5759.43997031764,5442.719710500616,-17992.50903882478,6047.048066791735,5889.252612465306,5882.915697599711,5748.648392526728,3217.019532856188,5901.299024883069,4992.234079461348,-15092.021540591588,-7605.803640265212,-1348.1315813566507,-2912.596652382298,2265.666660509611,-4459.180329975328,-4503.538734034488
-1290.848380640933,-14494.218324360092,341.8169523540296,2714.458264802631,6302.846105475174,4180.4815593518715,-3279.0083634225944,4250.250364604749,7183.551788330077,6630.169717889083,5555.529343454461,6669.634266903525,6598.296918367084,4857.464840537623,7814.294413516395,4751.870506688168,5755.675466437088,5438.892464888721,-17991.379687660617,6043.973721955951,5885.927300704152,5879.213935450504,5745.448564228258,3214.8863139905425,5897.660004465203,4988.281350386769,-15090.641222502054,-7599.529467130961,-1349.511899446186,-2913.0985862330385,2266.356819554379,-4459.3058134380135,-4499.2722963031965
-1290.220963327508,-14491.520429912363,341.8169523540296,2714.960198653371,6301.277562191611,4181.171718396638,-3273.236124139082,4250.375848067433,7181.983245046515,6629.5423005756575,5554.713700947008,6668.630399202045,6596.477408158151,4856.210005910772,7813.039578889546,4751.431314568769,5754.169664884867,5436.257312172337,-17989.246468794972,6042.718887329101,5884.421499151932,5877.519908704256,5743.566312287982,3215.513731303968,5896.405169838353,4986.838290565892,-15088.884454024465,-7594.949320742957,-1349.511899446186,-2909.6477910092,2267.1724620618315,-4455.855018214175,-4496.574401855468
-1289.844512939453,-14488.44608507658,342.88356178685234,2716.842450593647,6301.779496042352,4181.6736522473775,-3270.4127462286697,4251.944391350997,7182.673404091282,6629.918750963712,5552.51774035002,6669.947975560238,6596.540149889493,4856.14726417943,7812.098452919407,4752.497924001593,5754.797082198293,5435.127961008172,-17986.360349153216,6043.973721955951,5884.797949539987,5877.7081338982825,5743.629054019325,3218.2743674830385,5897.910971390573,4988.0303834614,-15087.7551028603,-7595.51399632504,-1347.817872699938,-2905.0676446211965,2266.921495136461,-4451.023904900801,-4495.758759348016
-1291.6012814170435,-14489.449952778063,343.19727044356495,2717.407126175729,6301.528529116981,4179.414949919048,-3276.498694168893,4252.069874813682,7182.422437165912,6628.663916336862,5550.384521484374,6670.575392873663,6595.849990844726,4854.578720895867,7809.400558471679,4752.93711612099,5754.608857004266,5433.433934261924,-17984.415355481597,6044.977589657432,5883.982307032536,5876.64152446546,5742.876153243215,3219.7174273039163,5898.789355629368,4988.344092118112,-15088.884454024465,-7602.290103310032,-1348.1315813566507,-2903.0599092182356,2265.9176274349807,-4451.023904900801,-4495.38230895996
-1293.609016820004,-14492.147847225788,343.95017121967516,2717.344384444387,6300.8383700722125,4176.779797202662,-3285.157053094161,4251.442457500257,7181.732278121144,6626.844406127929,5550.886455335114,6670.700876336348,6594.406931023848,4852.3827602988795,7805.385087665758,4752.686149195621,5754.106923153526,5431.739907515675,-17983.913421630856,6045.416781776828,5882.225538554944,5874.947497719212,5741.182126496968,3219.4664603785463,5898.601130435341,4986.963774028577,-15089.951063457287,-7608.313309518913,-1348.6962569387333,-2903.185392680921,2264.788276270816,-4454.6629253186675,-4494.6294081838505
-1292.4796656558387,-14491.39494644968,347.1499995181435,2719.16389465332,6302.218688161749,4176.96802239669,-3288.545106586657,4252.822775589792,7183.3635631360485,6627.158114784642,5554.1490253649245,6672.143936157226,6594.908864874588,4851.943568179481,7802.687193218028,4753.313566509046,5755.48724124306,5431.990874441046,-17983.22326258609,6047.110808523077,5882.601988942999,5874.947497719212,5740.8684178402555,3220.093877691971,5898.977580823395,4986.148131521124,-15087.880586322983,-7608.9407268323375,-1346.7512632671153,-2903.687326531661,2264.8510180021585,-4457.172594572368,-4495.319567228617
-1288.9033869693153,-14487.818667763157,350.2243443539268,2721.9245308323907,6305.418516460218,4179.289466456363,-3287.102046765779,4255.834378694232,7186.249682777806,6629.416817112972,5557.913529245477,6674.088929828844,6597.3557923969465,4852.947435880961,7802.248001098632,4754.882109792608,5757.871427034076,5433.747642918636,-17982.03116969058,6049.557736045435,5885.048916465357,5876.076848883376,5741.872285541735,3221.78790443822,5899.981448524876,4985.959906327096,-15084.868983218543,-7607.748633936831,-1343.8651436253597,-2904.126518651058,2267.1724620618315,-4458.678396124588,-4499.460521497224
-1284.7624327007093,-14484.367872539318,350.72627820466687,2723.932266235351,6309.057536878083,4182.614778217516,-3283.337542885228,4258.720498335989,7189.073060688218,6632.177453292043,5561.050615812602,6675.845698306433,6600.241912038702,4854.766946089894,7803.3146105314545,4756.576136538856,5760.192871093749,5436.069086978308,-17981.40375237716,6052.004663567794,5887.935036107113,5877.7081338982825,5743.127120168585,3223.921123303865,5901.549991808439,4986.0853897897805,-15083.237698203637,-7607.1212166234045,-1341.731924759714,-2903.938293457031,2270.1840651662724,-4460.8116149902335,-4503.475992303145
-1280.245028044048,-14481.858203285616,350.4753112792968,2725.940001638312,6313.198491146689,4186.692990754779,-3278.631913034539,4261.418392783717,7192.335630718028,6635.251798127825,5563.811251991673,6678.669076216847,6603.69270726254,4857.715807462992,7806.137988441868,4758.64661367316,5763.392699392218,5438.829723157381,-17980.462626407018,6055.141750134919,5891.511314793636,5880.845220465409,5745.323080765573,3226.8072429456206,5904.31062798751,4987.842158267372,-15081.606413188732,-7606.180090653267,-1340.1633814761512,-2902.871684024208,2273.1956682707128,-4462.882092124537,-4502.785833258376
-1275.9158485814144,-14480.791593852795,352.92223880165494,2728.88886301141,6316.9002532958975,4190.582978098016,-3274.6791839599605,4264.304512425472,7195.159008628443,6637.949692575555,5566.948338558799,6682.182613172028,6607.457211143092,4860.664668836092,7810.592651367186,4761.469991583573,5766.655269422028,5441.527617605108,-17976.76086425781,6058.40432016473,5895.652269062241,5884.484240883275,5748.209200407328,3230.509005094829,5906.945780703895,4990.728277909128,-15078.59481008429,-7604.172355250307,-1338.5320964612458,-2900.863948621248,2278.528715434827,-4461.689999229029,-4497.641011288291
-1273.7826297157687,-14481.983686748303,356.49851748817844,2730.6456314890006,6317.527670609323,4191.649587530838,-3273.9262831838505,4265.2456383956105,7194.657074777703,6638.57710988898,5569.520749543842,6683.4374477988795,6609.276721352025,4861.480311343544,7813.416029277599,4763.91691910593,5767.659137123509,5442.719710500616,-17972.49442652652,6059.847379985608,5897.471779271175,5885.6763337787825,5749.401293302836,3232.955932617187,5907.259489360608,4991.481178685238,-15076.398849487303,-7602.290103310032,-1338.2183878045332,-2899.1699218749995,2286.4969153153265,-4457.172594572368,-4492.87263970626
-1275.8531068500715,-14484.681581196031,354.61626554790286,2728.3869291606698,6314.265100579512,4188.826209620424,-3276.498694168893,4262.422260485197,7190.453378777755,6635.941957172594,5568.014947991622,6680.551328157122,6607.457211143092,4859.786284597296,7811.91022772538,4763.791435643246,5765.9023686459195,5441.276650679738,-17972.180717869807,6058.592545358758,5895.652269062241,5883.417631450452,5747.268074437191,3232.8931908858444,5905.189012226305,4989.159734625565,-15077.151750263412,-7603.482196205539,-1340.3516066701786,-2900.2992730391647,2292.520121524208,-4454.47470012464,-4493.939249139083
-1281.1234122828432,-14486.94028352436,346.7108073987458,2723.6812993099807,6309.496728997481,4184.371546695105,-3279.824005930047,4257.716630634508,7186.124199315121,6631.801002903988,5562.7446425588505,6676.347632157174,6604.069157650595,4857.527582268965,7807.894756919459,4761.344508120888,5763.518182854903,5438.390531037982,-17975.00409578022,6056.333843030427,5892.326957301088,5880.406028346011,5743.691795750668,3231.3873893336245,5902.553859509919,4986.336356715152,-15080.037869905167,-7607.748633936831,-1343.802401894017,-2904.8794194271686,2292.959313643606,-4455.855018214175,-4500.338905736019
-1286.707426372327,-14488.44608507658,339.87195868241156,2720.042278892115,6306.48512589304,4180.983493202611,-3282.2081917210626,4254.579544067383,7184.367430837529,6628.85214153089,5558.227237902189,6674.402638485556,6601.93593878495,4856.272747642115,7804.757670352333,4758.897580598529,5762.388831690738,5436.571020829048,-17977.701990227946,6055.392717060289,5890.381963629471,5879.025710256476,5741.558576885022,3230.7599720201993,5900.859832763671,4985.018780356959,-15083.488665129007,-7612.015071668122,-1347.692389237253,-2910.14972485994,2290.4496443899047,-4460.246939408151,-4506.048403288189
-1290.471930252878,-14489.010760658664,337.738739816766,2719.1011529219777,6306.48512589304,4180.105108963815,-3282.7728673031447,4254.26583541067,7184.9948481509555,6628.475691142834,5555.905793842516,6675.155539261666,6601.873197053607,4856.774681492855,7804.3184782329345,4758.019196359734,5762.828023810135,5436.884729485761,-17979.45875870554,6056.208359567742,5890.507447092156,5879.715869301243,5742.123252467105,3231.8893231843645,5901.487250077096,4985.708939401728,-15086.06107611405,-7614.524740921823,-1351.205926192434,-2911.969235068873,2289.2575514943974,-4465.517244840923,-4506.926787526983
-1291.8522483424135,-14488.383343345238,339.2445413689864,2720.293245817485,6308.681086490028,4181.610910516036,-3281.3925492136095,4256.085345619603,7186.8143583598885,6630.232459620424,5555.152893066404,6677.22601639597,6603.253515143143,4858.594191701788,7806.388955367239,4759.1485475239,5764.333825362355,5439.017948351408,-17979.77246736225,6058.216094970702,5892.326957301088,5881.660862972862,5744.632921720805,3234.52447590075,5904.498853181537,4988.155866924085,-15086.81397689016,-7616.2187676680705,-1353.401886789422,-2910.14972485994,2285.6812728078735,-4470.160132960269,-4505.546469437448
-1291.8522483424135,-14488.257859882555,342.00517754805713,2721.7990473697055,6310.814305355673,4183.179453799598,-3280.263198049445,4258.4695314106175,7188.131934718081,6632.302936754728,5556.721436349969,6679.4847187243,6604.759316695362,4860.037251522665,7808.584915964226,4761.720958508943,5765.7768851832325,5441.213908948396,-17974.188453272767,6061.227698075143,5894.58565962942,5883.041181062396,5746.766140586451,3237.4733372738483,5907.635939748663,4990.728277909128,-15086.500268233449,-7618.163761339688,-1354.4057544909024,-2910.4006917853103,2274.8269532856184,-4473.2344777960525,-4507.428721377723
-1290.2837050588505,-14488.94801892732,344.9540389211554,2723.3675906532685,6311.818173057153,4184.120579769737,-3279.949489392732,4260.289041619552,7188.696610300164,6633.495029650236,5561.9290000513965,6681.868904515316,6605.888667859528,4860.790152298776,7809.400558471679,4764.858045076068,5766.592527690686,5442.217776649876,-17962.83219989977,6065.180427149721,5896.907103689093,5883.668598375822,5747.832750019274,3240.2967151842618,5909.267224763568,4992.798755043431,-15084.868983218543,-7619.0421455784835,-1352.9626946700243,-2914.227937397204,2262.2786070171155,-4473.736411646792,-4512.0716094970685
-1286.205492521587,-14488.634310270609,349.2204766524465,2725.940001638312,6313.135749415347,4186.44202382941,-3276.7496610942635,4262.422260485197,7190.516120509096,6635.628248515881,5569.20704088713,6684.566798963044,6607.770919799804,4862.484179045025,7810.655393098529,4768.183356837222,5768.0983292429055,5443.472611276728,-17957.248185810287,6069.070414492958,5899.855965062191,5885.425366853412,5749.777743690892,3243.8729938707847,5911.274960166529,4995.5593912225,-15081.543671457388,-7617.536344026263,-1349.1981907894735,-2916.486639725534,2255.7534669574934,-4473.67366991545,-4513.012735467208
-1281.7508295962684,-14487.693184300471,352.6712718762849,2728.1987039666424,6314.95525962428,4189.328143471164,-3271.16564700478,4264.680962813528,7193.33949841951,6638.514368157636,5573.598962081105,6686.135342246607,6610.029622128134,4864.86836483604,7812.788611964174,4770.37931743421,5770.106064645867,5445.605830142372,-17962.957683362456,6070.63895777652,5901.989183927836,5887.746810913085,5752.350154675934,3247.762981214021,5914.663013659025,4998.570994326942,-15079.28496912906,-7614.963933041219,-1346.2493294163753,-2915.670997218081,2256.4436260022608,-4474.614795885587,-4510.126615825452
-1281.8763130589534,-14489.700919703431,350.28708608526927,2726.0654851009967,6312.884782489977,4187.634116724917,-3271.981289512232,4263.049677798622,7192.147405524001,6636.569374486019,5570.085425125924,6683.4374477988795,6608.461078844572,4863.362563283819,7811.408293874639,4768.371582031249,5768.725746556332,5444.288253784179,-17972.180717869807,6067.439129478053,5899.354031211451,5886.742943211605,5751.72273736251,3248.515881990131,5915.917848285875,4998.5082525956,-15081.79463838276,-7615.654092085989,-1347.817872699938,-2915.670997218081,2260.5218385395247,-4476.559789557205,-4510.001132362767
-1287.0211350290397,-14493.528165315323,343.1345287122224,2719.9167954294303,6306.296900699012,4181.046234933953,-3280.074972855417,4257.089213321083,7185.810490658408,6629.228591918944,5560.98787408126,6677.602466784025,6602.814323023746,4857.590324000308,7805.94976324784,4763.101276598478,5763.329957660875,5438.390531037982,-17978.01569888466,6060.9767311497735,5893.142599808541,5882.162796823602,5747.644524825246,3246.0062127364304,5913.470920763517,4995.433907759816,-15087.253169009558,-7620.23423847399,-1353.3391450580796,-2915.733738949424,2263.7844085693355,-4477.940107646741,-4513.200960661236
-1292.9188577752363,-14495.535900718283,337.17406423468327,2714.1445561459186,6300.273694490131,4174.897545262385,-3286.160920795641,4251.756166156969,7179.724542718184,6622.766193590664,5553.709833245528,6673.398770784076,6597.983209710372,4852.3827602988795,7801.055908203123,4758.772097135845,5758.6243278101865,5432.806516948498,-17979.396016974195,6056.1456178364,5888.8134203459085,5878.210067749023,5744.821146914833,3244.24944425884,5910.710284584447,4993.614397550884,-15090.892189427424,-7624.68890139931,-1358.6721922221934,-2914.1651956658607,2263.972633763364,-4477.438173796001,-4514.894987407483
-1298.50287186472,-14496.727993613791,334.16246113024255,2710.380052265368,6296.634674072265,4171.007557919152,-3288.4823648553142,4248.9955299778985,7176.273747494345,6619.315398366827,5551.200163991827,6671.8302275005135,6595.097090068616,4848.869223343698,7797.22866259123,4756.45065307617,5756.4283672132,5429.042013067948,-17978.141182347346,6054.7025580155205,5887.872294375769,5875.8886236893495,5744.068246138721,3244.0612190648126,5909.769158614308,4993.802622744911,-15093.52734214381,-7628.453405279861,-1362.9386299534847,-2915.7964806807668,2260.5845802708673,-4478.755750154192,-4515.5224047209085
-1303.2712434467514,-14498.610245554068,334.2252028615851,2708.9369924444895,6295.128872520045,4168.623372128135,-3289.235265631424,4248.368112664472,7175.458104986893,6618.060563739977,5553.333382857472,6672.269419619911,6593.46580505371,4846.67326274671,7794.530768143502,4755.635010568719,5756.177400287828,5426.971535933644,-17975.5687713623,6056.271101299085,5889.127129002621,5875.0729811818965,5744.130987870065,3245.2533119603204,5911.02399324116,4995.308424297132,-15096.28797832288,-7631.841458772356,-1366.514908640008,-2921.6314616956206,2254.561374061985,-4482.394770572059,-4518.032073974608
-1303.710435566149,-14499.36314633018,338.36615713019114,2711.070211310136,6296.948382728978,4168.811597322162,-3288.6078483179995,4250.5013315301185,7178.093257703278,6619.2526566354845,5556.344985961913,6675.03005579898,6594.281447561163,4847.614388716847,7795.597377576325,4756.638878270199,5758.875294735557,5427.84992017244,-17973.121843839945,6059.784638254266,5892.389699032432,5877.331683510228,5745.825014616313,3248.2021733334186,5914.600271927681,4998.75921952097,-15096.350720054223,-7632.343392623097,-1366.891359028063,-2925.772415964226,2249.9184859426396,-4484.214280780992,-4520.479001496968
-1300.2596403423108,-14498.798470748095,345.76968142860807,2715.148423847399,6301.152078728926,4170.693849262438,-3290.176391601562,4253.450192903217,7181.606794658458,6620.88394165039,5556.031277305201,6677.72795024671,6596.477408158151,4849.935832776521,7799.424623188219,4758.081938091077,5762.577056884765,5430.7360398141955,-17973.121843839945,6061.980598851253,5896.09146118164,5881.221670853463,5749.0248429147805,3250.900067781147,5918.427517539576,5002.900173789576,-15094.217501188576,-7630.837591070876,-1364.5071732370475,-2924.266614412006,2247.7852670769935,-4484.967181557103,-4519.537875526828
-1295.2403018349091,-14497.41815265856,356.0593253687808,2719.352119847348,6305.481258191559,4173.140776784796,-3292.309610467208,4256.399054276314,7183.990980449475,6622.5779683966375,5556.470469424598,6679.421976992958,6599.049819143193,4851.818084716796,7802.812676680714,4760.340640419408,5765.46317652652,5434.437801963404,-17973.31006903397,6063.109950015419,5899.6049981368205,5885.299883390727,5753.793214496813,3252.4058693333673,5922.003796226099,5007.103869789525,-15092.586216173671,-7629.582756444027,-1361.6210535952919,-2918.11792474044,2246.9696245695413,-4485.720082333213,-4515.836113377621
-1290.848380640933,-14496.602510151108,362.4589819657175,2721.6735639070207,6307.614477057205,4175.023028725072,-3290.9292923776725,4258.532273141961,7185.057589882297,6624.3974786055705,5559.73303945441,6680.363102963095,6601.18303800884,4852.821952418277,7804.569445158306,4763.226760061163,5766.9062363473995,5437.951338918585,-17971.239591899666,6064.427526373612,5902.679342972604,5889.252612465306,5759.628195511666,3253.0332866467925,5925.01539933054,5011.244824058131,-15092.586216173671,-7628.327921817176,-1358.358483565481,-2912.847619307668,2247.8480088083365,-4484.465247706363,-4511.946126034385
-1289.7817712081105,-14498.045569971984,355.05545766730046,2719.6658285040603,6305.9831920423,4174.583836605673,-3289.298007362767,4256.963729858398,7183.175337942022,6624.021028217516,5561.176099275287,6678.98278487356,6600.869329352127,4852.194535104852,7805.071379009045,4764.1678860313,5766.404302496659,5439.457140470805,-17969.984757272818,6064.427526373612,5903.683210674085,5891.448573062294,5764.020116705642,3252.7823197214225,5926.082008763362,5013.942718505858,-15094.092017725892,-7625.69276910079,-1355.59784738641,-2911.592784680818,2251.4870292262026,-4480.763485557153,-4509.750165437396
-1292.3541821931535,-14501.182656539111,340.9385681152343,2714.646489996659,6301.528529116981,4172.011425620632,-3289.298007362767,4252.509066933079,7178.846158479389,6621.825067620528,5559.105622140984,6675.531989649721,6598.045951441713,4850.876958746659,7806.075246710525,4763.038534867135,5764.522050556383,5438.892464888721,-17971.30233363101,6062.67075789602,5902.930309897974,5891.197606136924,5765.149467869808,3252.4686110647094,5925.768300106651,5014.946586207339,-15096.727170442278,-7622.994874653063,-1356.8526820132606,-2912.7848775763255,2255.6907252261512,-4477.438173796001,-4510.189357556795
-1295.9932026110196,-14503.064908479388,334.6643949809827,2711.383919966848,6297.952250430458,4170.693849262438,-3285.345278288188,4249.371980365952,7175.771813643605,6621.38587550113,5555.717568648488,6672.896836933336,6595.661765650699,4851.3788925973995,7809.086849814967,4762.348375822368,5763.518182854903,5439.017948351408,-17972.49442652652,6061.1649563438,5902.491117778577,5890.695672286183,5762.95350727282,3253.096028378135,5925.831041837992,5015.699486983449,-15098.923131039266,-7622.681165996349,-1361.8720205206619,-2915.5455137553963,2258.200394479852,-4475.869630512438,-4513.138218929893
-1300.5733489990232,-14503.692325792812,332.3429509213096,2709.878118414628,6295.881773296155,4171.195783113178,-3279.133846885279,4247.928920545076,7174.705204210783,6622.828935322008,5552.01580649928,6671.5165188438,6594.97160660593,4853.323886269017,7812.91409542686,4762.1601506283405,5763.643666317588,5440.398266440943,-17972.055234407122,6060.16108864232,5902.365634315892,5891.1348644055815,5759.43997031764,3253.4724787661894,5926.332975688732,5016.766096416272,-15100.868124710883,-7626.006477757503,-1366.9541007594055,-2918.808083785207,2259.957162957442,-4475.806888781095,-4516.212563765676
-1306.0946213571647,-14505.762802927116,324.7512014288651,2707.1802239668996,6293.6858126991665,4170.819332725122,-3282.0827082583774,4245.921185142115,7173.826819971986,6623.14264397872,5548.439527812757,6669.885233828895,6594.532414486533,4853.951303582442,7814.545380441763,4760.40338215075,5763.392699392218,5441.151167217054,-17972.49442652652,6058.40432016473,5901.173541420384,5891.887765181691,5758.310619153473,3252.21764413934,5926.395717420075,5017.330771998354,-15103.00134357653,-7629.457272981341,-1369.5265117444487,-2920.5021105314554,2261.5257062410046,-4476.43430609452,-4518.094815705951
-1308.3533236854953,-14507.017637553967,317.91235271253083,2706.3018397281044,6293.748554430509,4171.070299650492,-3292.811544317948,4245.54473475406,7174.830687673468,6624.0837699488575,5548.063077424701,6670.26168421695,6595.661765650699,4855.457105134662,7816.239407188013,4759.1485475239,5764.020116705642,5442.656968769274,-17973.81200288471,6058.216094970702,5901.487250077096,5893.9582423159945,5760.757546675832,3250.837326049804,5927.4623268528985,5018.522864893863,-15102.499409725788,-7627.825987966436,-1367.707001535516,-2920.062918412057,2262.843282599198,-4475.5559218557255,-4517.153689735814
-1306.9102638646175,-14505.700061195772,317.97509444387333,2709.4389262952295,6297.26209138569,4173.517227172852,-3297.8308828253494,4248.493596127159,7178.406966359991,6627.283598247326,5551.513872648539,6673.210545590048,6599.300786068564,4859.284350746556,7819.941169337221,4759.775964837325,5766.0905938399455,5445.7940553364,-17972.93361864592,6060.286572105006,5904.4361114501935,5897.283554077148,5764.145600168328,3250.398133930407,5929.219095330489,5020.46785856548,-15100.366190860144,-7624.500676205282,-1364.444431505705,-2918.9335672478924,2264.4118258827607,-4475.304954930355,-4512.573543347809
-1308.1650984914677,-14506.703928897252,319.66912119012125,2711.383919966848,6298.8306346692525,4173.768194098221,-3293.8781537507707,4249.560205559981,7179.787284449526,6628.224724217464,5553.01967420076,6673.586995978104,6600.618362426757,4860.413701910721,7821.070520501387,4758.458388479132,5765.7768851832325,5446.609697843852,-17972.74539345189,6060.035605179635,5904.938045300934,5897.597262733861,5763.9573749743,3247.888464676706,5927.838777240952,5019.526732595343,-15103.2523105019,-7627.198570653011,-1366.012974789268,-2919.749209755345,2265.666660509611,-4481.139935945209,-4508.997264661287
-1312.4315362227587,-14510.907624897203,319.7946046528063,2708.68602551912,6296.634674072265,4171.195783113178,-3287.7922058105464,4245.983926873458,7177.591323852537,6625.840538426449,5550.070812827662,6669.50878344084,6597.606759322316,4857.527582268965,7818.623592979029,4753.313566509046,5762.263348228053,5443.911803396124,-17978.831341392113,6055.141750134919,5900.922574495014,5894.460176166735,5760.569321481805,3242.7436427066195,5923.572339509662,5015.448520058079,-15110.906801725687,-7633.347260324577,-1370.7186046399568,-2922.0706538150175,2265.9176274349807,-4489.923778333162,-4507.742430034436
-1311.5531519839635,-14510.970366628544,323.9355589214124,2705.988131071392,6296.00725675884,4171.634975232576,-3282.7101255718026,4242.721356843646,7176.587456151057,6625.715054963764,5547.561143573961,6666.246213411029,6595.849990844726,4856.460972836143,7818.623592979029,4749.423579165808,5760.44383801912,5442.782452231959,-17986.423090884557,6050.310636821546,5897.471779271175,5893.017116345856,5759.377228586297,3238.916397094726,5921.188153718646,5013.252559461092,-15114.043888292812,-7633.598227249947,-1370.3421542519015,-2919.8119514866876,2266.168594360351,-4491.492321616724,-4504.668085198653
-1305.2162371183695,-14505.511836001744,331.4645666825144,2706.6155483848165,6297.8267669677725,4175.462220844469,-3278.3809461091687,4242.470389918277,7177.779549046566,6628.287465948807,5546.557275872481,6665.5560543662605,6597.104825471576,4858.343224776418,7821.509712620784,4748.7334201210415,5760.94577186986,5444.225512052836,-17989.434693989,6047.738225836502,5896.216944644325,5893.707275390624,5760.318354556433,3236.9086616917657,5920.6862198679055,5013.127075998406,-15110.593093068972,-7629.269047787315,-1364.946365356445,-2912.220201994244,2266.7960116737763,-4484.088797318307,-4499.962455347964
-1300.6988324617084,-14499.990563643603,333.72326901084494,2707.493932623612,6298.391442549855,4177.720923172799,-3275.432084736071,4242.972323769017,7178.281482897306,6629.730525769684,5544.800507394891,6664.677670127467,6597.983209710372,4859.598059403268,7823.015514173005,4748.2314862703015,5760.632063213147,5444.6647041722335,-17990.564045153165,6045.103073120116,5894.836626554788,5892.828891151828,5759.94190416838,3234.27350897538,5919.054934853001,5012.374175222296,-15106.954072651108,-7625.441802175421,-1360.303477237099,-2906.0715123226764,2266.482303017064,-4472.858027407997,-4497.891978213661
-1300.4478655363382,-14497.606377852588,330.39795724969156,2705.674422414679,6296.069998490182,4176.215121620579,-3276.561435900236,4242.344906455592,7176.775681345086,6628.412949411492,5542.855513723272,6662.5444512618205,6596.602891620836,4858.719675164472,7821.509712620784,4746.223750867342,5758.812553004214,5442.468743575246,-17993.073714406866,6041.338569239566,5892.075990375719,5889.629062853361,5757.3067514519935,3230.446263363486,5915.8551065545325,5010.115472893965,-15105.950204949628,-7618.979403847143,-1357.7310662520558,-2904.942161158511,2265.2274683902137,-4461.188065378289,-4500.213422273334
-1301.0125411184208,-14497.292669195876,329.3313478168688,2703.729428743061,6293.1838788484265,4173.454485441509,-3280.7651319001848,4240.9018466347125,7174.767945942125,6626.216988814504,5542.79277199193,6660.662199321545,6594.657897949218,4857.276615343595,7819.251010292454,4744.216015464381,5757.118526257966,5439.645365664833,-17995.332416735197,6038.075999209755,5889.503579390675,5886.241009360865,5754.23240661621,3226.6817594829354,5912.467053062037,5006.97838632684,-15104.25617820338,-7609.630885877105,-1353.5901119834496,-2906.008770591334,2264.5373093454455,-4450.898421438116,-4501.719223825555
-1301.0752828497634,-14497.731861315275,331.77827533922687,2704.105879131116,6292.305494609632,4172.1996508146585,-3283.964960198653,4239.647012007864,7174.454237285412,6625.526829769736,5543.106480648642,6659.846556814093,6594.469672755191,4856.962906686882,7818.2471425909725,4743.274889494243,5756.742075869911,5438.766981426038,-17997.402893869497,6036.632939388876,5888.186003032483,5884.421499151932,5752.287412944593,3223.6701563784945,5910.02012553968,5003.9667832223995,-15101.370058561624,-7604.360580444334,-1348.508031744706,-2907.577313874897,2264.662792808131,-4447.573109676963,-4499.209554571854
-1301.2007663124484,-14498.42202036004,334.41342805561266,2706.678290116159,6294.50145520662,4173.266260247481,-3285.2197948255034,4240.964588366056,7176.775681345086,6626.907147859271,5543.608414499383,6661.728808754368,6597.16756720292,4858.594191701788,7819.000043367085,4744.341498927066,5758.561586078844,5440.649233366313,-17999.724337929172,6037.887774015727,5889.001645539936,5885.237141659385,5752.601121601305,3222.164354826274,5909.07899956954,5001.95904781944,-15100.052482203431,-7605.364448145814,-1346.7512632671153,-2910.2124665912825,2265.478435315584,-4453.533574154502,-4496.260693198756
-1300.5733489990232,-14498.3592786287,336.17019653320307,2710.631019190738,6299.4580519826795,4176.026896426552,-3284.906086168791,4245.231026097347,7180.916635613692,6629.918750963712,5546.243567215768,6666.559922067742,6601.873197053607,4861.794020000257,7821.13326223273,4747.792294150904,5762.137864765367,5443.8490616647805,-17999.975304854543,6041.715019627621,5891.825023450348,5888.248744763825,5755.2990160490335,3222.2270965576167,5909.07899956954,5000.955180117958,-15100.491674322828,-7608.187826056229,-1348.194323087993,-2912.596652382298,2266.168594360351,-4462.1291913484265,-4496.950852243524
-1300.4478655363382,-14497.9200865093,334.7898784436677,2712.199562474301,6303.285297594572,4177.783664904142,-3284.090443661338,4247.6779536197055,7183.4890465987355,6631.801002903988,5547.623885305304,6670.0107172915805,6604.320124575966,4863.425305015162,7821.886163008839,4750.17647994192,5764.145600168328,5444.6647041722335,-17997.90482772024,6044.789364463404,5893.4563084652555,5889.440837659333,5757.055784526624,3221.5369375128494,5907.57319801732,4998.947444714998,-15101.74650894968,-7610.948462235299,-1350.2020584909535,-2912.9103610390102,2266.733269942434,-4467.211271587171,-4499.7742301539365
-1301.5772167005036,-14497.9200865093,331.4645666825144,2710.19182707134,6303.410781057257,4177.281731053402,-3283.086575959858,4246.1721520674855,7183.11259621068,6631.424552515933,5544.675023932205,6669.446041709498,6602.814323023746,4862.107728656969,7819.878427605879,4749.549062628495,5763.141732466847,5442.468743575246,-17996.587251362045,6045.103073120116,5892.326957301088,5887.056651868317,5755.361757780375,3218.9645265278054,5904.498853181537,4995.49664949116,-15103.816986083983,-7615.214899966591,-1349.762866371556,-2910.4006917853103,2267.1724620618315,-4468.842556602076,-4500.527130930047
-1301.0752828497634,-14497.041702270504,331.33908321982926,2709.1252176385174,6303.599006251285,4177.783664904142,-3279.6357807360196,4245.356509560032,7183.11259621068,6631.738261172645,5541.726162559107,6668.50491573936,6601.93593878495,4861.229344418174,7818.184400859632,4749.423579165808,5762.577056884765,5441.025683754368,-17997.02644348144,6045.040331388774,5891.260347868266,5884.735207808644,5752.663863332648,3216.956791124845,5902.679342972604,4992.924238506116,-15105.887463218283,-7617.912794414318,-1346.688521535773,-2905.0049028898534,2266.984236867804,-4468.591589676706,-4498.268428601717
-1297.3107789692124,-14494.845741673518,334.6643949809827,2711.572145160876,6306.171417236327,4181.046234933953,-3274.3027335719057,4248.117145739103,7185.434040270353,6634.373413889031,5542.918255454615,6670.387167679635,6604.257382844623,4863.048854627107,7819.062785098426,4752.874374389648,5764.835759213096,5442.468743575246,-17997.340152138157,6047.048066791735,5892.828891151828,5885.174399928042,5751.534512168481,3218.3998509457238,5903.620468942742,4992.736013312088,-15105.322787636203,-7613.897323608397,-1345.245461714895,-2899.483630531712,2266.984236867804,-4465.642728303607,-4494.8176333778765
-1292.4796656558387,-14492.085105494447,337.2995476973684,2714.8347151906864,6308.367377833316,4184.120579769737,-3269.7853289152445,4251.505199231599,7187.567259135998,6637.008566605416,5546.431792409796,6672.95957866468,6606.955277292352,4865.746749074834,7820.3803614566195,4757.0153286582545,5767.596395392166,5444.288253784179,-17997.151926944127,6049.494994314093,5895.401302136872,5886.241009360865,5750.405161004317,3221.78790443822,5904.938045300934,4993.0497219688,-15101.24457509894,-7605.427189877157,-1346.437554610403,-2897.7896037854644,2267.2979455245168,-4460.560648064864,-4493.62554048237
-1290.597413715563,-14490.767529136252,337.55051462273843,2715.462132504112,6306.171417236327,4183.242195530941,-3269.910812377929,4252.195358276367,7185.87323238975,6636.130182366622,5549.443395514237,6673.02232039602,6606.139634784899,4865.4957821494645,7818.686334710371,4757.956454628392,5766.9062363473995,5443.033419157328,-17997.528377332183,6049.808702970805,5895.08759348016,5884.60972434596,5746.828882317794,3222.9172556023846,5902.930309897974,4990.79101964047,-15097.668296412416,-7600.345109638414,-1347.064971923828,-2902.1187832480978,2266.984236867804,-4457.674528423108,-4496.323434930097
-1292.7306325812087,-14491.95962203176,336.4839051899157,2713.203430175781,6300.273694490131,4178.22285702354,-3276.184985512181,4250.187622873406,7181.544052927116,6631.173585590563,5551.953064767938,6670.575392873663,6601.998680516293,4861.166602686832,7814.043446591024,4755.948719225431,5762.95350727282,5438.641497963353,-17997.528377332183,6048.240159687241,5891.260347868266,5880.217803151983,5741.558576885022,3221.348712318821,5898.475646972655,4985.834422864412,-15097.29184602436,-7601.098010414525,-1346.7512632671153,-2909.585049277857,2266.921495136461,-4457.73727015445,-4500.715356124075
-1296.6206199244448,-14494.40654955412,334.03697766755755,2710.129085339998,6295.128872520045,4171.948683889288,-3285.658986944901,4246.862311112252,7177.967774240594,6624.962154187653,5550.447263215717,6667.3755645751935,6597.3557923969465,4855.268879940635,7809.212333277651,4752.435182270249,5759.00077819824,5433.998609844007,-17997.402893869497,6045.855973896227,5886.742943211605,5875.63765676398,5737.2293974223885,3218.9645265278054,5894.836626554788,4980.940567819695,-15098.2329719945,-7604.486063907021,-1349.009965595446,-2914.855354710629,2268.7410053453946,-4459.3058134380135,-4504.35437654194
-1299.694964760228,-14496.790735345136,331.5273084138569,2708.435058593749,6293.49758750514,4168.24692174008,-3292.8742860492903,4243.8507080078125,7176.650197882401,6621.13490857576,5544.110348350122,6664.740411858809,6594.595156217875,4851.3788925973995,7806.514438829923,4748.482453195672,5756.553850675883,5431.363457127621,-17998.030311182923,6043.534529836554,5883.856823569849,5873.127987510279,5735.096178556742,3216.894049393503,5892.515182495116,4977.9289647152555,-15098.546680651212,-7607.748633936831,-1353.4646285207643,-2915.608255486739,2270.4350320916424,-4460.8116149902335,-4504.856310392681
-1299.1302891781454,-14495.786867643656,333.34681862278984,2710.9447278474504,6296.697415803607,4170.191915411698,-3292.2468687358646,4244.540867052579,7178.595191554017,6622.766193590664,5541.412453902393,6665.5560543662605,6596.289182964124,4852.320018567537,7807.518306531403,4747.102135106136,5756.742075869911,5432.555550023128,-17997.779344257553,6043.220821179841,5884.421499151932,5874.194596943102,5736.162787989566,3216.956791124845,5892.452440763774,4977.740739521227,-15096.476203516908,-7608.68975990697,-1353.4646285207643,-2911.969235068873,2270.3722903603,-4460.121455945467,-4500.2761640046765
-1295.6167522229644,-14492.210588957132,339.43276656301396,2715.901324623509,6302.406913355777,4175.462220844469,-3286.411887721011,4248.619079589844,7183.049854479337,6627.911015560751,5545.302441245632,6669.320558246813,6600.93207108347,4856.5237145674855,7810.969101755241,4748.6706783897,5759.628195511666,5436.382795635022,-17996.90096001876,6045.2285565828015,5887.872294375769,5877.959100823653,5739.613583213404,3219.9683942292863,5895.213076942845,4979.56024973016,-15093.84105080052,-7608.187826056229,-1348.2570648193357,-2908.455698113692,2269.11745573345,-4458.615654393246,-4494.127474333111
-1292.0404735364411,-14490.077370091485,346.0206483539782,2719.16389465332,6306.6106093557255,4179.22672472502,-3281.7689996016647,4252.195358276367,7186.939841822573,6631.801002903988,5549.945329364977,6672.645870007966,6604.508349769993,4859.723542865952,7813.227804083571,4750.741155524001,5762.514315153422,5439.331657008121,-17996.27354270533,6047.299033717105,5891.1348644055815,5881.221670853463,5742.49970285516,3223.983865035207,5898.852097360711,4981.505243401778,-15093.088150024412,-7608.815243369654,-1343.7396601626747,-2908.8321485017473,2267.1724620618315,-4459.243071706671,-4493.437315288344
-1289.1543538946853,-14489.88914489746,349.4714435778165,2719.7285702354025,6308.304636101972,4180.920751471268,-3279.886747661389,4253.701159828587,7188.6338685688215,6633.306804456208,5552.329515155992,6673.96344636616,6605.763184396844,4860.413701910721,7813.16506235223,4752.058731882195,5763.580924586246,5440.335524709601,-17994.95596634714,6048.67935180664,5893.017116345856,5882.539247211656,5743.691795750668,3226.5562760202506,5900.6088658383005,4982.383627640573,-15092.27250751696,-7610.132819727846,-1341.355474371659,-2910.4634335166525,2265.1019849275285,-4461.627257497687,-4497.891978213661
-1287.7740358051499,-14491.269462986995,346.0206483539782,2717.6580931010994,6307.1125432064655,4180.544301083213,-3282.0827082583774,4253.011000783819,7187.880967792711,6632.553903680097,5552.580482081363,6672.896836933336,6605.073025352076,4859.3470924778985,7811.094585217927,4752.435182270249,5762.95350727282,5439.708107396175,-17992.25807189941,6049.055802194695,5893.4563084652555,5882.037313360916,5743.378087093955,3227.371918527703,5900.671607569644,4982.195402446546,-15090.954931158769,-7610.885720503955,-1340.7280570582338,-2910.526175247995,2264.0353754947055,-4464.387893676757,-4500.778097855416
-1288.02500273052,-14493.026231464586,337.80148154810854,2714.5210065339734,6303.975456639339,4178.72479087428,-3286.3491459896686,4251.254232306229,7186.061457583777,6630.35794308311,5551.451130917198,6670.387167679635,6603.378998605828,4858.40596650776,7808.333949038856,4752.121473613538,5762.326089959395,5438.641497963353,-17988.368084556176,6048.742093537982,5893.017116345856,5880.907962196751,5742.562444586502,3228.187561035156,5901.110799689041,4982.132660715203,-15090.013805188628,-7611.324912623353,-1342.0456334164267,-2909.522307546515,2264.7255345394733,-4466.332887348375,-4499.648746691251
-1288.9033869693153,-14493.716390509351,332.02924226459703,2712.826979787726,6301.277562191611,4177.281731053402,-3288.294139661287,4249.685689022665,7184.6183977629,6628.412949411492,5550.133554559005,6668.379432276675,6602.18690571032,4858.782416895816,7805.761538053811,4751.93324841951,5762.577056884765,5438.07682238127,-17984.101646824885,6048.302901418585,5892.452440763774,5880.217803151983,5741.684060347707,3229.5678791246914,5902.553859509919,4983.011044953998,-15089.511871337889,-7610.885720503955,-1343.927885356702,-2909.3968240838294,2265.2274683902137,-4465.642728303607,-4499.586004959909
-1289.9072546707955,-14493.40268185264,331.2763414884868,2712.7642380563834,6299.897244102076,4176.215121620579,-3288.419623123972,4248.430854395816,7183.175337942022,6627.158114784642,5549.945329364977,6667.250081112509,6601.747713590921,4858.907900358501,7803.440093994139,4751.68228149414,5762.388831690738,5437.512146799188,-17980.02343428762,6048.051934493215,5891.887765181691,5879.402160644529,5741.119384765624,3230.7599720201993,5903.745952405427,4984.767813431588,-15088.508003636409,-7608.376051250256,-1345.245461714895,-2909.9614996659125,2263.9098920320207,-4462.317416542454,-4502.158415944952
-1291.350314491673,-14492.963489733243,332.21746745862447,2712.5760128623556,6299.395310251336,4174.834803531044,-3289.925424676192,4247.176019768965,7181.355827733089,6626.154247083161,5550.572746678402,6666.434438605057,6601.43400493421,4857.40209880628,7801.244133397152,4750.615672061317,5760.94577186986,5435.943603515624,-17978.705857929428,6047.67548410516,5891.511314793636,5877.833617360968,5741.307609959652,3231.952064915707,5904.498853181537,4986.775548834549,-15087.7551028603,-7606.368315847296,-1346.5002963417453,-2909.7732744718846,2262.7805408678555,-4460.49790633352,-4502.34664113898
-1291.5385396857007,-14491.520429912363,334.3506863242701,2713.077946713096,6300.8383700722125,4174.772061799701,-3289.6117160194794,4247.6779536197055,7181.293086001747,6626.467955739874,5552.76870727539,6667.438306306537,6601.6849718595795,4856.021780716745,7799.989298770301,4749.988254747892,5760.44383801912,5435.127961008172,-17981.152785451788,6048.1774179559,5892.264215569747,5877.2062000475435,5742.876153243215,3234.52447590075,5906.883038972553,4989.598926744961,-15087.629619397614,-7606.744766235351,-1346.5002963417453,-2909.6477910092,2263.9098920320207,-4461.376290572317,-4499.146812840511
-1288.9661287006577,-14488.759793733292,340.3111508018092,2716.0268080861943,6304.853840878134,4177.720923172799,-3283.713993273283,4251.505199231599,7184.430172568873,6629.103108456259,5557.788045782792,6671.642002306486,6603.880932456568,4856.711939761512,7801.244133397152,4752.435182270249,5762.890765541478,5436.445537366365,-17982.47036180998,6051.314504523026,5894.9621100174745,5879.464902375873,5746.138723273026,3239.167364020096,5911.651410554584,4994.1790731329675,-15087.441394203586,-7607.623150474145,-1344.2415940134147,-2911.4045594867903,2266.2940778230363,-4462.756608661852,-4497.891978213661
-1285.3898500141343,-14486.43834967362,349.2204766524465,2720.5442127428555,6309.245762072112,4181.046234933953,-3280.0122311240743,4257.1519550524245,7189.198544150904,6632.3656784860705,5563.49754333496,6677.351499858654,6607.143502486379,4858.343224776418,7804.067511307567,4757.580004240337,5766.592527690686,5438.766981426038,-17977.76473195929,6056.835776881168,5898.789355629368,5883.229406256424,5750.154194078947,3244.3121859901826,5916.608007330642,4999.637603759765,-15087.002202084188,-7608.2505677875715,-1341.9201499537417,-2913.8514870091485,2267.360687255859,-4464.262410214073,-4500.652614392732
-1283.0684059544612,-14486.18738274825,355.05545766730046,2724.3087166234063,6311.943656519839,4182.050102635433,-3285.094311362818,4261.606617977744,7192.712081106085,6634.122446963661,5566.571888170744,6681.178745470548,6609.841396934107,4859.598059403268,7805.69879632247,4762.41111755371,5769.164938675729,5441.151167217054,-17970.863141511614,6061.917857119911,5902.491117778577,5886.303751092208,5753.918697959498,3248.3903985274455,5920.247027748509,5004.468717073139,-15086.939460352844,-7609.128952026366,-1341.1672491776314,-2914.3534208598885,2267.486170718544,-4465.768211766293,-4503.8524426912
-1282.2527634470084,-14487.316733912416,351.4164372494346,2725.5635512502568,6312.822040758633,4181.548168784693,-3291.1802593030425,4263.049677798622,7193.841432270249,6634.310672157689,5567.011080290141,6682.3080966347125,6610.719781172902,4860.225476716692,7805.1341207403875,4764.795303344726,5770.357031571237,5442.970677425987,-17968.98088957134,6064.61575156764,5904.812561838249,5888.186003032483,5756.051916825143,3250.460875661749,5922.317504882812,5007.98225402832,-15086.939460352844,-7610.885720503955,-1341.731924759714,-2913.537778352436,2266.921495136461,-4468.466106214021,-4504.730826929996
-1282.7546972977486,-14489.010760658664,341.4405019659745,2723.869524504009,6311.692689594469,4180.4815593518715,-3292.497835661235,4261.292909321032,7192.649339374742,6633.055837530838,5566.0699543200035,6681.178745470548,6609.213979620682,4859.723542865952,7802.436226292659,4764.230627762643,5769.792355989153,5442.782452231959,-17971.74152575041,6064.364784642269,5904.56159491288,5888.37422822651,5755.612724705746,3251.025551243832,5922.568471808182,5009.676280774568,-15087.253169009558,-7612.70523071289,-1343.8651436253597,-2912.847619307668,2265.5411770469264,-4472.356093557257,-4504.166151347913
-1284.4487240439967,-14490.328337016856,335.1663288317228,2720.983404862253,6308.869311684056,4178.8502743369645,-3292.0586435418377,4257.779372365851,7189.449511076274,6630.734393471164,5563.121092946904,6678.48085102282,6606.453343441611,4858.0295161197055,7798.985431068821,4762.1601506283405,5767.345428466796,5440.711975097655,-17974.125711541426,6062.294307507966,5902.302892584549,5886.868426674289,5753.918697959498,3251.652968557257,5921.439120644017,5010.115472893965,-15087.943328054324,-7612.140555130806,-1346.8767467298003,-2912.220201994244,2265.4156935842407,-4474.050120303505,-4503.977926153885
-1285.8917838648745,-14490.3910787482,336.6093886526007,2719.7285702354025,6306.359642430355,4177.97189009817,-3291.61945142244,4255.583411768863,7186.688874897203,6629.040366724917,5558.791913484271,6676.410373888517,6604.884800158048,4857.088390149568,7796.8522122031745,4761.344508120888,5765.2749513324925,5439.143431814093,-17973.74926115337,6060.913989418431,5900.985316226356,5885.927300704152,5753.542247571441,3252.9078031841073,5921.439120644017,5011.244824058131,-15087.7551028603,-7608.627018175625,-1348.1315813566507,-2911.279076024105,2266.921495136461,-4470.034649497584,-4504.291634810598
-1285.954525596217,-14489.324469315376,343.0717869808799,2720.857921399568,6305.543999922902,4178.599307411594,-3289.423490825452,4256.587279470343,7187.128067016601,6629.5423005756575,5556.219502499229,6677.351499858654,6605.6377009341595,4858.343224776418,7796.8522122031745,4763.1640183298205,5766.027852108604,5439.770849127518,-17969.29459822805,6061.729631925883,5902.051925659179,5887.558585719057,5755.110790855006,3254.2253795423,5923.76056470369,5013.503526386461,-15085.684625725993,-7604.235096981652,-1346.814004998458,-2910.965367367393,2267.360687255859,-4461.689999229029,-4504.919052124023
-1286.080009058902,-14489.136244121348,348.7812845330489,2722.6146898771585,6306.108675504985,4179.979625501131,-3286.0981790642986,4259.598882574784,7189.449511076274,6631.550035978617,5557.537078857421,6680.551328157122,6607.519952874433,4860.476443642064,7797.165920859888,4766.3011048969465,5769.1021969443855,5442.029551455848,-17962.26752431769,6064.17655944824,5904.624336644222,5890.883897480211,5757.871427034076,3255.2292472437807,5926.834909539472,5015.950453908819,-15083.990598979748,-7602.603811966744,-1345.245461714895,-2912.7848775763255,2266.6705282110916,-4455.729534751489,-4505.797436362817
-1288.5896783126027,-14492.210588957132,348.4675758763363,2722.4264646831302,6306.547867624383,4179.8541420384445,-3287.7922058105464,4261.230167589689,7190.829829165808,6633.118579262181,5559.795781185752,6682.6218052914255,6608.712045769942,4861.731278268913,7795.973827964381,4768.183356837222,5772.051058317485,5444.727445903577,-17960.134305452044,6066.435261776573,5906.883038972553,5894.08372577868,5761.384963989257,3256.2958566766038,5929.281837061832,5018.0836727744645,-15086.06107611405,-7605.929123727898,-1345.747395565635,-2917.6159908897,2265.5411770469264,-4456.356952064915,-4507.867913497122
-1294.2364341334292,-14498.547503822727,343.7619460256476,2718.7247025339225,6304.665615684107,4176.215121620579,-3298.2700749447467,4258.532273141961,7189.261285882248,6631.236327321904,5557.411595394737,6680.614069888466,6607.080760755036,4860.601927104749,7792.773999665912,4766.050137971576,5771.988316586143,5445.354863217001,-17967.78879667583,6065.61961926912,5906.757555509867,5895.08759348016,5763.580924586246,3256.2331149452607,5930.222963031969,5018.773831819232,-15093.150891755755,-7614.3992574591375,-1350.2648002222963,-2924.4548396060336,2265.3529518528985,-4463.572251169305,-4512.949993735865
-1299.569481297543,-14503.504100598784,339.87195868241156,2713.8935892205486,6301.591270848324,4171.509491769891,-3307.869559840152,4253.073742515162,7185.87323238975,6626.718922665244,5552.078548230623,6676.033923500462,6603.316256874486,4857.527582268965,7789.448687904758,4761.219024658201,5769.353163869757,5443.409869545384,-17978.141182347346,6062.357049239308,5904.875303569593,5893.6445336592815,5762.890765541478,3255.041022049753,5929.721029181229,5018.146414505807,-15100.993608173569,-7623.622291966486,-1356.3507481625204,-2928.470310411955,2266.2940778230363,-4473.67366991545,-4517.279173198498
-1300.3223820736532,-14503.315875404758,335.0408453690378,2710.9447278474504,6300.210952758788,4169.564498098272,-3306.8656921386714,4249.309238634611,7183.61453006142,6623.519094366776,5548.753236469469,6672.77135347065,6601.120296277497,4855.2061382092925,7789.072237516702,4757.7054877030205,5767.470911929481,5441.590359336451,-17983.536971242804,6060.098346910978,5903.683210674085,5892.389699032432,5760.44383801912,3254.9782803184103,5929.846512643913,5018.271897968492,-15103.126827039216,-7626.1947029515295,-1357.2918741326582,-2926.4625750089945,2266.2313360916937,-4479.132200542249,-4516.087080302991
-1297.9381962826376,-14500.304272300316,326.82167856316806,2709.564409757915,6299.959985833419,4169.564498098272,-3300.0268434223367,4248.05440400776,7183.049854479337,6622.703451859323,5547.310176648592,6671.3282936497735,6600.806587620785,4854.327753970497,7791.393681576376,4756.199686150801,5767.031719810084,5441.213908948396,-17984.54083894428,6059.40818786621,5903.118535092001,5892.389699032432,5757.934168765419,3255.793922825864,5931.038605539422,5019.0875404759445,-15100.177965666117,-7622.681165996349,-1352.8372112073396,-2922.258879009046,2266.0431108976663,-4478.818491885536,-4512.573543347809
-1296.8088451184724,-14498.86121247944,321.17492274234166,2708.1840916683796,6298.265959087171,4168.686113859478,-3295.7604056910463,4247.113278037623,7181.481311195776,6622.327001471268,5545.365182976972,6669.320558246813,6599.990945113332,4853.512111463045,7792.899483128597,4755.070334986636,5766.0905938399455,5440.711975097655,-17983.9761633622,6058.592545358758,5902.302892584549,5892.452440763774,5757.369493183336,3255.919406288548,5931.415055927477,5019.463990864,-15098.79764757658,-7620.798914056074,-1351.5823765804892,-2922.0706538150175,2266.858753405119,-4478.253816303452,-4511.005000064247
-1297.8754545512952,-14499.36314633018,322.1160487124794,2706.3645814594465,6295.693548102127,4167.368537501285,-3294.8192797209085,4245.29376782869,7178.469708091334,6621.6368424265,5544.04760661878,6666.810888993112,6598.73611048648,4852.5709854929055,7793.2131917853085,4754.129209016498,5764.647534019068,5439.959074321546,-17982.658587004007,6057.776902851305,5901.989183927836,5892.766149420488,5758.938036466899,3256.4840818706302,5931.540539390162,5020.154149908768,-15100.805382979543,-7622.93213292172,-1356.1625229684928,-2926.1488663522814,2267.8626211066,-4479.320425736276,-4512.6990268104955
-1300.2596403423108,-14500.806206151055,326.6961951004831,2703.478461817691,6293.246620579769,4165.862735949064,-3296.827015123869,4242.658615112305,7175.14439633018,6620.444749530992,5544.1730900814655,6664.5521866647805,6597.104825471576,4851.3788925973995,7793.2131917853085,4753.313566509046,5763.392699392218,5438.892464888721,-17980.650851601047,6057.3377107319075,5902.177409121864,5893.205341539884,5760.820288407174,3257.9271416915085,5932.167956703587,5021.158017610248,-15103.2523105019,-7626.633895070928,-1360.930894550524,-2929.787886770148,2268.1135880319694,-4480.324293437757,-4519.726100720857
-1303.8359190288343,-14503.566842330129,329.7705399362664,2699.96492486251,6290.423242669356,4163.290324964021,-3300.8424859297897,4239.647012007864,7171.819084569026,6618.186047202662,5542.29083814119,6662.168000873766,6594.344189292506,4848.7437398810125,7792.397549277857,4751.745023225481,5761.384963989257,5436.696504291735,-17979.333275242854,6055.769167448344,5901.048057957699,5892.389699032432,5761.824156108655,3257.801658228824,5931.979731509559,5021.346242804276,-15105.322787636203,-7629.331789518656,-1364.3816897743625,-2931.5446552477383,2267.6743959125715,-4480.826227288497,-4526.753174631219
-1307.1612307899875,-14506.829412359937,330.27247378700656,2698.521865041632,6288.29002380371,4161.03162263569,-3302.09732055664,4238.0784687243,7169.685865703381,6616.241053531044,5538.024400409899,6660.411232396175,6591.771778307462,4845.794878507915,7792.146582352487,4749.611804359837,5758.749811272872,5434.312318500719,-17979.70972563091,6053.322239925987,5898.601130435341,5890.632930554841,5762.577056884765,3255.4802141691507,5930.599413420024,5020.844308953536,-15107.01681438245,-7629.6454981753695,-1367.5187763414883,-2933.238681993986,2266.6705282110916,-4481.7046115272915,-4525.184631347655
-1307.8513898347553,-14506.89215409128,333.1585934287623,2701.5334681460727,6290.109534012643,4162.537424187911,-3294.8820214522502,4240.086204127261,7171.505375912314,6618.060563739977,5536.455857126336,6661.477841828998,6592.022745232833,4846.359554089998,7794.969960262899,4748.796161852384,5758.185135690789,5434.3750602320615,-17979.835209093595,6052.632080881219,5897.158070614463,5890.193738435443,5764.145600168328,3253.4724787661894,5929.909254375257,5020.844308953536,-15106.954072651108,-7628.390663548518,-1367.957968460886,-2932.862231605931,2265.290210121556,-4482.14380364669,-4517.467398392526
